% data log for sensor has 343 values (interval=50ms)
% data format:
% 1   Time (ms)
% 2,3 (a,b) calculated rotations per second
% 4   ESC PW (ms)
% 5   Battery voltage (V)
% 6   Battery current (A)
% 7   Motor temp (deg C)
% 8   ESC temp (deg C)
0.00 8.43 8.41 1.097 11.30 0.13 31.5 33.8
50.00 8.42 8.43 1.097 11.29 0.12 31.5 33.8
150.13 8.43 8.41 1.097 11.30 0.12 31.5 33.9
200.10 8.42 8.43 1.097 11.29 0.11 31.5 33.8
250.08 8.41 8.42 1.097 11.29 0.11 31.5 33.9
300.02 8.41 8.43 1.097 11.30 0.12 31.4 33.8
350.09 8.42 8.42 1.097 11.29 0.12 31.4 33.8
400.01 8.42 8.42 1.097 11.29 0.11 31.4 33.8
450.09 8.42 8.42 1.097 11.29 0.12 31.5 33.8
500.06 8.43 8.41 1.097 11.30 0.12 31.5 33.8
550.04 8.42 8.43 1.097 11.30 0.14 31.2 33.8
600.04 8.42 8.43 1.097 11.30 0.12 31.4 33.8
650.14 8.43 8.43 1.097 11.29 0.12 31.4 33.8
700.06 8.43 8.42 1.097 11.29 0.12 31.4 33.8
750.04 8.41 8.41 1.097 11.29 0.12 31.5 33.8
800.14 8.41 8.42 1.097 11.30 0.13 31.4 33.8
850.05 8.40 8.41 1.097 11.29 0.12 31.3 33.8
900.01 8.40 8.40 1.097 11.29 0.12 31.5 33.8
950.11 8.40 8.40 1.097 11.29 0.12 31.4 33.8
1000.10 8.40 8.40 1.097 11.30 0.12 31.4 33.8
1050.04 8.40 8.40 1.097 11.30 0.13 31.3 33.7
1100.05 8.42 8.40 1.175 11.25 1.39 31.2 33.8
1150.02 9.20 9.06 1.175 11.29 0.82 31.3 33.8
1200.12 11.45 11.30 1.175 11.28 0.64 31.2 33.7
1250.00 13.13 13.03 1.175 11.29 0.51 31.4 33.8
1300.12 14.00 14.26 1.175 11.29 0.46 31.5 33.8
1350.01 15.08 15.05 1.175 11.29 0.40 31.4 33.8
1400.01 15.60 15.69 1.175 11.29 0.36 31.4 33.7
1450.03 15.92 15.92 1.175 11.28 0.33 31.4 33.7
1500.01 16.18 16.21 1.175 11.29 0.33 31.5 33.8
1550.03 16.34 16.36 1.175 11.29 0.33 31.6 33.8
1600.06 16.46 16.45 1.175 11.29 0.31 31.4 33.7
1650.07 16.59 16.59 1.175 11.29 0.30 31.5 33.7
1700.10 16.59 16.61 1.175 11.29 0.30 31.4 33.7
1750.00 16.68 16.65 1.175 11.29 0.31 31.4 33.8
1800.14 16.71 16.70 1.175 11.29 0.32 31.4 33.7
1850.07 16.75 16.75 1.175 11.29 0.31 31.5 33.6
1900.05 16.76 16.75 1.175 11.29 0.30 31.4 33.7
1950.02 16.79 16.79 1.175 11.29 0.31 31.5 33.7
2000.06 16.79 16.78 1.175 11.29 0.29 31.4 33.7
2050.05 16.80 16.83 1.175 11.29 0.31 31.4 33.8
2100.08 17.74 17.56 1.253 11.26 1.82 31.3 33.6
2150.10 20.33 20.16 1.253 11.27 1.42 31.2 33.7
2200.08 22.22 22.58 1.253 11.27 1.21 31.3 33.6
2250.05 24.06 24.04 1.253 11.28 1.01 31.2 33.6
2300.12 24.78 24.84 1.253 11.28 0.91 31.2 33.7
2350.14 25.41 25.39 1.253 11.28 0.86 31.2 33.6
2400.04 25.73 25.73 1.253 11.28 0.84 31.4 33.6
2450.09 26.02 25.98 1.253 11.28 0.79 31.3 33.7
2500.04 26.10 26.09 1.253 11.28 0.75 31.2 33.7
2550.14 26.11 26.11 1.253 11.28 0.76 31.3 33.7
2600.08 26.20 26.26 1.253 11.28 0.75 31.3 33.6
2650.02 26.28 26.28 1.253 11.28 0.80 31.3 33.6
2700.10 26.25 26.25 1.253 11.28 0.77 31.3 33.6
2750.02 26.36 26.35 1.253 11.28 0.76 31.3 33.6
2800.10 26.33 26.31 1.253 11.28 0.74 31.4 33.6
2850.01 26.33 26.33 1.253 11.28 0.72 31.3 33.6
2900.05 26.36 26.36 1.253 11.28 0.73 31.3 33.6
2950.12 26.32 26.30 1.253 11.28 0.78 31.3 33.6
3000.02 26.37 26.33 1.253 11.27 0.79 31.3 33.6
3050.08 26.36 26.37 1.253 11.28 0.79 31.2 33.5
3100.12 27.30 27.75 1.331 11.24 2.68 30.9 33.5
3150.13 30.36 30.20 1.331 11.26 2.27 30.8 33.5
3200.09 32.14 31.97 1.331 11.24 1.96 31.2 33.5
3250.12 32.91 32.94 1.331 11.26 1.79 31.2 33.6
3300.07 33.55 33.51 1.331 11.26 1.71 31.0 33.5
3350.05 34.05 34.06 1.331 11.26 1.63 31.0 33.5
3400.03 34.17 34.22 1.331 11.26 1.59 31.2 33.5
3450.13 34.53 34.53 1.331 11.26 1.54 31.1 33.5
3500.00 34.64 34.57 1.331 11.26 1.54 31.2 33.5
3550.12 34.60 34.71 1.331 11.27 1.53 31.1 33.4
3600.14 34.74 34.63 1.331 11.26 1.60 31.0 33.4
3650.12 34.73 34.73 1.331 11.26 1.58 31.1 33.4
3700.07 34.78 34.70 1.331 11.26 1.50 31.1 33.4
3750.12 34.83 34.70 1.331 11.26 1.51 31.1 33.4
3800.10 34.90 34.81 1.331 11.26 1.58 31.1 33.4
3850.01 34.77 34.79 1.331 11.27 1.49 31.0 33.3
3900.11 34.78 34.79 1.331 11.26 1.53 31.1 33.4
3950.09 34.77 34.89 1.331 11.26 1.55 31.0 33.5
4000.09 34.85 34.89 1.331 11.26 1.50 31.1 33.3
4050.10 34.86 34.74 1.331 11.26 1.50 31.0 33.3
4100.10 36.51 36.42 1.410 11.19 4.10 30.8 33.3
4150.07 39.12 39.09 1.410 11.21 3.53 30.8 33.3
4200.08 40.54 40.51 1.410 11.25 3.24 30.7 33.3
4250.01 41.38 41.39 1.410 11.22 2.89 30.8 33.2
4300.10 41.70 41.74 1.410 11.23 2.82 30.9 33.3
4350.12 42.00 42.04 1.410 11.23 2.88 30.8 33.2
4400.12 42.43 42.37 1.410 11.23 2.70 31.0 33.3
4450.01 42.45 42.52 1.410 11.24 2.84 30.7 33.2
4500.03 42.38 42.46 1.410 11.24 2.65 30.7 33.2
4550.13 42.60 42.46 1.410 11.24 2.83 30.8 33.3
4600.13 42.52 42.54 1.410 11.23 2.67 30.8 33.1
4650.11 42.51 42.53 1.410 11.25 2.69 30.9 33.2
4700.07 42.52 42.40 1.410 11.23 2.66 30.8 33.2
4750.10 42.53 42.39 1.410 11.23 2.83 30.8 33.2
4800.06 42.56 42.52 1.410 11.24 2.85 30.6 33.2
4850.11 42.67 42.61 1.410 11.24 2.80 30.9 33.2
4900.08 42.51 42.60 1.410 11.23 2.65 30.7 33.2
4950.05 42.59 42.54 1.410 11.22 2.69 30.7 33.1
5000.03 42.50 42.51 1.410 11.24 2.78 30.7 33.2
5050.01 42.45 42.66 1.410 11.24 2.75 30.8 33.1
5100.03 44.02 43.99 1.488 11.17 5.99 30.5 33.2
5150.02 46.57 46.66 1.488 11.17 5.18 30.6 33.0
5200.10 47.72 47.85 1.488 11.18 4.83 30.5 33.1
5250.04 48.55 48.65 1.488 11.18 4.76 30.6 33.1
5300.11 49.32 49.50 1.488 11.18 4.62 30.6 33.1
5350.05 49.44 49.44 1.488 11.21 4.50 30.6 33.0
5400.12 49.76 49.77 1.488 11.19 4.64 30.5 33.1
5450.07 49.85 49.85 1.488 11.20 4.51 30.6 33.0
5500.05 49.85 49.90 1.488 11.19 4.47 30.6 33.0
5550.10 49.84 50.10 1.488 11.20 4.49 30.6 32.9
5600.04 49.87 49.88 1.488 11.18 4.47 30.6 32.9
5650.12 50.26 49.97 1.488 11.21 4.34 30.4 33.0
5700.04 50.25 49.95 1.488 11.19 4.35 30.6 32.9
5750.06 50.02 49.89 1.488 11.20 4.44 30.5 33.0
5800.13 50.14 50.11 1.488 11.19 4.37 30.5 32.9
5850.00 49.93 49.95 1.488 11.18 4.54 30.5 32.9
5900.07 49.93 50.13 1.488 11.18 4.39 30.4 32.9
5950.13 50.00 49.92 1.488 11.18 4.34 30.6 32.8
6000.06 50.14 49.93 1.488 11.20 4.47 30.6 32.8
6050.13 50.11 49.95 1.488 11.20 4.51 30.5 32.9
6100.00 51.51 51.57 1.566 11.10 8.02 30.5 32.8
6150.08 53.60 53.83 1.566 11.08 7.06 30.4 32.8
6200.05 54.91 54.88 1.566 11.14 6.88 30.5 32.8
6250.06 55.76 55.75 1.566 11.14 7.22 30.4 32.7
6300.02 56.05 55.99 1.566 11.13 6.82 30.3 32.8
6350.14 56.32 56.51 1.566 11.12 6.68 30.4 32.7
6400.13 56.70 56.86 1.566 11.16 6.91 30.4 32.7
6450.09 56.53 56.90 1.566 11.13 6.44 30.5 32.7
6500.09 56.84 56.62 1.566 11.12 6.75 30.4 32.7
6550.07 56.49 56.51 1.566 11.16 6.84 30.4 32.7
6600.03 56.83 56.52 1.566 11.15 6.80 30.4 32.7
6650.12 56.67 56.95 1.566 11.11 6.58 30.3 32.6
6700.09 56.97 56.78 1.566 11.16 6.75 30.3 32.6
6750.11 56.75 56.96 1.566 11.12 6.59 30.4 32.7
6800.04 56.58 56.82 1.566 11.14 6.64 30.5 32.6
6850.06 56.64 56.77 1.566 11.14 6.68 30.3 32.6
6900.01 56.93 56.79 1.566 11.15 6.75 30.4 32.5
6950.01 56.84 56.69 1.566 11.16 6.72 30.2 32.6
7000.00 56.64 56.99 1.566 11.12 6.62 30.4 32.5
7050.11 56.65 56.71 1.566 11.11 6.64 30.3 32.5
7100.02 58.72 58.27 1.644 11.04 11.12 30.3 32.7
7150.14 60.57 60.58 1.644 11.03 10.04 30.2 32.5
7200.12 61.39 61.54 1.644 11.05 9.73 30.2 32.4
7250.11 62.03 62.02 1.644 11.06 9.36 30.2 32.6
7300.09 62.82 62.86 1.644 11.09 9.71 30.1 32.4
7350.11 63.20 63.03 1.644 11.07 9.53 30.2 32.3
7400.04 62.66 62.61 1.644 11.07 9.45 30.2 32.4
7450.11 63.21 62.93 1.644 11.05 9.25 30.2 32.4
7500.02 63.03 62.87 1.644 11.10 9.18 30.3 32.4
7550.03 62.68 62.96 1.644 11.05 9.30 30.2 32.4
7600.06 63.21 63.09 1.644 11.06 9.23 30.2 32.4
7650.02 62.73 63.25 1.644 11.09 9.27 30.2 32.2
7700.14 62.94 63.00 1.644 11.08 9.37 30.2 32.3
7750.00 63.27 62.99 1.644 11.07 9.36 30.1 32.3
7800.12 63.21 62.77 1.644 11.06 9.26 30.2 32.4
7850.04 62.69 62.93 1.644 11.08 9.07 30.2 32.3
7900.04 63.21 63.09 1.644 11.07 9.40 30.2 32.3
7950.14 62.84 62.74 1.644 11.08 9.22 30.1 32.4
8000.10 63.01 62.76 1.644 11.07 9.26 30.2 32.3
8050.09 62.78 62.95 1.644 11.10 9.39 30.2 32.2
8100.09 64.52 64.46 1.722 10.96 13.75 30.0 32.2
8150.09 66.21 66.36 1.722 11.01 12.76 30.0 32.3
8200.00 66.84 66.87 1.722 10.97 12.41 30.0 32.1
8250.01 67.41 67.32 1.722 11.00 12.34 30.0 32.1
8300.05 68.15 68.17 1.722 10.97 12.23 30.0 32.2
8350.10 67.96 68.17 1.722 10.98 11.92 29.9 32.1
8400.03 68.41 68.20 1.722 11.02 12.30 30.0 32.3
8450.06 67.98 68.39 1.722 10.99 11.96 29.8 32.2
8500.00 67.85 67.98 1.722 11.00 12.31 29.9 32.1
8550.06 68.10 68.22 1.722 11.00 12.05 29.9 32.1
8600.07 68.41 67.87 1.722 11.04 11.90 30.0 32.1
8650.13 68.06 68.01 1.722 11.01 11.87 29.8 32.0
8700.01 68.24 68.14 1.722 11.02 12.23 29.8 32.0
8750.04 67.99 68.46 1.722 11.01 12.33 29.9 32.0
8800.05 68.03 68.34 1.722 10.98 11.83 30.0 32.2
8850.10 68.43 68.20 1.722 11.03 12.06 30.0 32.0
8900.00 68.41 68.39 1.722 10.98 12.04 29.7 32.1
8950.13 68.10 68.03 1.722 11.01 12.33 30.0 31.9
9000.02 68.06 68.30 1.722 11.03 12.46 30.0 31.9
9050.02 68.04 68.29 1.722 10.99 12.08 29.9 31.9
9100.05 69.88 70.13 1.800 10.89 17.72 29.8 31.9
9150.08 71.37 71.50 1.800 10.94 16.71 29.7 31.9
9200.10 72.41 72.60 1.800 10.88 16.24 29.7 31.7
9250.13 72.87 73.07 1.800 10.96 15.84 29.7 31.9
9300.06 73.28 72.99 1.800 10.90 15.63 29.7 32.0
9350.09 73.23 72.90 1.800 10.90 15.93 29.7 31.8
9400.11 73.26 73.17 1.800 10.89 15.15 29.7 31.8
9450.01 73.46 73.27 1.800 10.96 15.79 29.7 32.0
9500.01 73.35 73.55 1.800 10.91 15.91 29.7 31.9
9550.00 73.49 74.03 1.800 10.92 15.80 29.8 32.0
9600.12 73.42 73.53 1.800 10.84 15.41 29.7 31.8
9650.00 73.38 73.58 1.800 10.95 15.62 29.7 31.9
9700.04 73.26 73.82 1.800 10.87 15.13 29.7 31.7
9750.04 73.40 73.17 1.800 10.87 14.80 29.7 31.8
9800.11 73.84 73.87 1.800 10.97 15.75 29.7 31.7
9850.06 73.62 73.73 1.800 10.87 15.03 29.7 31.8
9900.00 73.83 73.47 1.800 10.94 15.80 29.6 31.8
9950.02 73.92 74.19 1.800 10.95 14.95 29.7 31.6
10000.08 73.90 73.91 1.800 10.92 15.54 29.6 31.7
10050.01 73.94 73.62 1.800 10.95 16.38 29.7 31.6
10100.07 75.01 75.77 1.879 10.77 21.97 29.6 31.6
10150.02 77.33 76.99 1.879 10.81 20.42 29.5 31.6
10200.07 78.16 77.95 1.879 10.81 20.44 29.7 31.6
10250.04 78.96 78.27 1.879 10.76 19.84 29.3 31.6
10300.00 79.20 78.85 1.879 10.78 20.24 29.7 31.5
10350.11 78.91 78.77 1.879 10.87 19.25 29.7 31.6
10400.00 78.48 78.47 1.879 10.90 20.22 29.4 31.4
10450.07 78.58 78.27 1.879 10.85 19.11 29.5 31.4
10500.02 79.26 78.75 1.879 10.89 19.66 29.5 31.3
10550.08 78.63 79.30 1.879 10.82 19.32 29.7 31.4
10600.09 78.63 78.85 1.879 10.90 19.93 29.7 31.1
10650.03 79.02 78.62 1.879 10.85 20.73 29.5 31.3
10700.10 78.52 78.54 1.879 10.91 20.07 29.5 31.4
10750.07 79.24 78.89 1.879 10.83 20.14 29.4 31.4
10800.11 78.94 78.79 1.879 10.85 20.40 29.4 31.3
10850.05 78.37 78.86 1.879 10.82 19.68 29.4 31.3
10900.00 78.82 78.86 1.879 10.81 19.72 29.7 31.1
10950.11 78.99 78.77 1.879 10.78 19.34 29.4 31.0
11000.04 79.20 78.85 1.879 10.94 19.67 29.3 31.2
11050.13 78.41 78.61 1.879 10.82 20.30 29.3 31.2
11100.09 78.55 79.15 1.879 10.84 20.16 29.5 31.2
11150.15 78.76 78.27 1.879 10.88 20.36 29.4 30.9
11200.02 78.49 79.18 1.879 10.78 19.05 29.3 31.1
11250.03 79.11 78.20 1.879 10.85 19.29 29.1 31.0
11300.10 78.40 78.56 1.879 10.75 19.44 29.4 30.9
11350.02 78.86 79.08 1.879 10.79 18.41 29.4 30.9
11400.10 78.34 78.63 1.879 10.84 20.51 29.5 30.9
11450.14 78.63 78.81 1.879 10.79 19.91 29.3 30.9
11500.04 79.12 79.14 1.879 10.81 19.28 29.4 31.0
11550.08 78.93 78.28 1.879 10.78 19.01 29.3 30.9
11600.06 78.28 78.65 1.879 10.84 19.01 29.3 31.0
11650.00 78.20 78.51 1.879 10.73 19.89 29.3 30.8
11700.08 78.36 78.73 1.879 10.77 19.25 29.2 30.9
11750.07 78.29 78.70 1.879 10.84 19.52 29.3 30.7
11800.12 78.48 79.14 1.879 10.88 19.35 29.4 30.9
11850.05 78.49 78.87 1.879 10.78 18.54 29.2 30.6
11900.14 78.49 78.16 1.879 10.81 19.51 29.2 31.0
11950.05 78.03 78.17 1.879 10.80 19.78 29.2 30.8
12000.00 78.26 78.59 1.879 10.78 19.47 29.3 31.0
12050.05 78.15 77.86 1.879 10.92 20.14 29.2 30.8
12100.05 78.74 78.47 1.879 10.86 20.02 29.3 30.9
12150.13 78.09 78.33 1.879 10.85 19.64 29.3 30.8
12200.07 78.12 78.18 1.879 10.74 18.84 29.3 30.7
12250.05 78.64 78.09 1.879 10.82 20.38 29.1 30.9
12300.10 78.27 78.07 1.879 10.79 19.68 29.2 30.8
12350.06 78.07 78.21 1.879 10.89 20.51 29.2 30.8
12400.12 78.10 78.46 1.879 10.81 19.80 29.2 30.9
12450.03 78.35 78.23 1.879 10.86 20.36 29.4 30.7
12500.10 78.36 78.09 1.879 10.84 18.75 29.2 30.8
12550.03 78.14 78.08 1.879 10.77 19.29 29.2 30.9
12600.09 78.34 78.13 1.879 10.80 20.08 29.3 31.1
12650.12 78.71 78.19 1.879 10.87 19.45 29.1 30.7
12700.04 78.08 78.66 1.879 10.85 19.78 29.3 30.9
12750.01 78.11 78.12 1.879 10.76 18.29 29.1 30.6
12800.08 78.36 78.19 1.879 10.88 19.74 29.4 30.7
12850.11 78.06 78.15 1.879 10.82 19.10 29.3 30.8
12900.14 78.07 78.06 1.879 10.78 19.02 29.2 30.8
12950.04 78.49 78.22 1.879 10.79 19.28 29.0 30.5
13000.05 78.39 78.13 1.879 10.94 20.09 29.2 30.8
13050.00 78.13 78.66 1.879 10.76 18.49 29.2 30.8
13100.10 77.76 78.11 1.879 10.78 19.08 29.1 31.0
13150.14 78.10 78.08 1.879 10.78 18.92 29.0 30.8
13200.03 78.09 78.09 1.879 10.84 18.95 29.1 30.9
13250.05 77.93 77.95 1.879 10.74 18.89 29.2 31.0
13300.06 78.00 77.66 1.879 10.76 19.54 29.0 30.8
13350.11 77.93 78.06 1.879 10.81 19.70 28.9 30.9
13400.12 78.05 77.46 1.879 10.84 19.34 29.2 30.8
13450.02 77.60 77.91 1.879 10.78 18.93 29.2 30.9
13500.09 78.06 77.63 1.879 10.92 20.60 29.0 31.1
13550.13 77.79 78.01 1.879 10.83 20.12 29.0 30.8
13600.06 77.45 77.99 1.879 10.90 20.17 29.3 30.7
13650.01 78.04 77.69 1.879 10.87 19.51 29.1 31.0
13700.09 77.66 78.02 1.879 10.75 19.15 29.1 30.8
13750.07 77.78 78.02 1.879 10.88 19.84 29.0 31.2
13800.08 77.91 77.99 1.879 10.80 19.90 29.0 31.0
13850.05 77.68 77.99 1.879 10.80 19.41 28.9 30.8
13900.10 78.06 78.06 1.879 10.85 19.39 29.0 31.3
13950.02 77.41 77.30 1.000 11.54 0.29 29.7 30.7
14000.12 68.63 68.24 1.000 11.35 0.00 29.8 30.9
14050.05 60.27 60.28 1.000 11.26 0.02 29.8 30.9
14100.04 54.57 54.65 1.000 11.30 0.00 29.9 30.7
14150.04 49.62 49.64 1.000 11.30 0.01 29.8 30.8
14200.14 44.89 44.95 1.000 11.30 0.01 29.7 30.8
14250.09 41.48 41.51 1.000 11.30 0.01 29.8 30.8
14300.02 38.38 38.46 1.000 11.30 0.02 29.9 30.8
14350.01 35.72 35.66 1.000 11.30 0.01 29.7 30.8
14400.10 33.24 33.29 1.000 11.30 0.01 29.8 30.8
14450.11 31.21 31.35 1.000 11.30 0.01 29.8 30.8
14500.06 29.33 29.39 1.000 11.30 0.01 29.8 30.8
14550.01 27.79 27.57 1.000 11.30 0.02 29.9 31.0
14600.10 26.34 26.37 1.000 11.30 0.01 29.9 31.0
14650.05 24.65 24.73 1.000 11.30 0.01 29.7 31.0
14700.04 23.54 23.62 1.000 11.30 0.01 29.7 31.0
14750.01 22.44 22.46 1.000 11.30 0.01 29.8 31.1
14800.10 21.36 21.43 1.000 11.30 0.02 29.8 31.0
14850.07 20.32 20.39 1.000 11.30 0.01 29.8 31.0
14900.04 19.31 19.38 1.000 11.30 0.01 29.9 31.1
14950.13 18.34 18.40 1.000 11.30 0.01 29.7 31.1
15000.10 17.56 17.38 1.000 11.30 0.01 29.7 31.1
15050.06 16.84 16.91 1.000 11.30 0.02 29.8 30.9
15100.04 15.87 15.93 1.000 11.30 0.01 29.8 31.0
15150.12 15.37 15.43 1.000 11.30 0.01 29.7 31.1
15200.03 14.39 14.44 1.000 11.30 0.01 29.8 31.1
15250.14 13.91 13.95 1.000 11.30 0.01 29.9 31.1
15300.02 13.42 13.47 1.000 11.30 0.02 29.8 31.0
15350.01 12.65 12.71 1.000 11.30 0.01 29.8 31.1
15400.09 11.94 11.99 1.000 11.30 0.01 29.7 31.1
15450.00 11.42 11.46 1.000 11.30 0.01 29.9 31.3
15500.07 10.91 10.95 1.000 11.30 0.01 29.9 30.9
15550.10 10.35 10.42 1.000 11.30 0.02 29.8 31.1
15600.05 9.83 9.89 1.000 11.30 0.01 29.9 31.2
15650.09 9.49 9.29 1.000 11.30 0.01 29.8 31.1
15700.12 9.22 8.96 1.000 11.30 0.01 29.8 31.0
15750.03 8.65 8.71 1.000 11.30 0.01 29.8 31.1
15800.03 8.01 8.07 1.000 11.30 0.02 29.7 30.9
15850.02 7.67 7.47 1.000 11.30 0.00 29.9 31.0
15900.01 7.41 7.47 1.000 11.30 0.00 29.8 31.0
15950.00 6.67 6.75 1.000 11.30 0.01 29.7 31.0
16000.05 6.67 6.75 1.000 11.30 0.01 29.9 31.1
16050.03 5.99 6.05 1.000 11.30 0.02 29.8 30.9
16100.04 5.99 6.05 1.000 11.30 0.01 29.8 31.1
16150.02 5.09 5.19 1.000 11.30 0.01 29.7 31.1
16200.04 5.09 5.19 1.000 11.30 0.01 29.9 31.0
16250.03 5.09 4.71 1.000 11.30 0.02 29.9 31.2
16300.03 4.27 4.34 1.000 11.30 0.02 29.9 31.2
16350.05 4.27 4.34 1.000 11.30 0.01 29.9 31.0
16400.03 4.27 4.34 1.000 11.30 0.01 29.9 31.2
16450.02 4.27 4.34 1.000 11.30 0.01 29.9 31.1
16500.01 4.27 3.56 1.000 11.30 0.01 29.9 31.3
16550.14 4.27 3.56 1.000 11.30 0.02 29.8 31.2
16600.05 4.27 3.56 1.000 11.30 0.01 29.9 30.9
16650.03 4.27 2.82 1.000 11.30 0.01 29.9 31.1
16700.01 4.27 2.82 1.000 11.30 0.01 29.8 31.4
16750.01 4.27 2.82 1.000 11.30 0.01 29.8 31.0
16800.13 4.27 2.82 1.000 11.30 0.02 29.9 31.1
16850.01 4.27 2.82 1.000 11.30 0.01 29.8 30.9
16900.13 4.27 2.82 1.000 11.30 0.01 30.0 31.4
16950.10 4.27 2.82 1.000 11.30 0.01 29.9 31.3
17000.00 4.27 2.82 1.000 11.30 0.01 29.8 31.1
17050.13 4.27 2.82 1.000 11.30 0.03 29.8 31.1
17100.04 4.27 2.82 1.000 11.30 0.01 29.8 31.3
17150.01 4.27 2.82 1.000 11.30 0.01 30.0 31.2
