% data log for sensor has 3125 values (interval=5ms)
% data format:
% 1   Time (ms)
% 2,3 (a,b) calculated rotations per second
% 4   ESC PW (ms)
% 5   Battery voltage (V)
% 6   Battery current (A)
% 7   Motor temp (deg C)
% 8   ESC temp (deg C)
0.00 8.01 8.00 1.097 11.17 0.12 30.6 31.0
10.06 8.01 8.00 1.097 11.17 0.12 30.6 30.9
15.14 8.01 8.00 1.097 11.17 0.12 30.5 31.1
20.04 8.00 8.00 1.097 11.17 0.12 30.5 31.2
25.12 8.00 8.00 1.097 11.17 0.12 30.6 30.9
30.03 8.00 8.00 1.097 11.17 0.12 30.6 30.7
35.10 8.00 8.00 1.097 11.17 0.11 30.5 31.1
40.01 8.00 8.00 1.097 11.17 0.11 30.5 31.0
45.07 8.00 8.00 1.097 11.17 0.12 30.7 30.9
50.13 8.00 8.00 1.097 11.17 0.12 30.6 31.0
55.05 8.00 8.00 1.097 11.17 0.13 30.5 30.9
60.12 8.00 8.02 1.097 11.17 0.12 30.6 31.1
65.04 8.00 8.02 1.097 11.17 0.12 30.6 31.2
70.13 8.00 8.02 1.097 11.17 0.13 30.5 31.1
75.05 8.00 8.01 1.097 11.17 0.13 30.6 31.1
80.13 8.00 8.01 1.097 11.17 0.13 30.4 31.0
85.05 8.00 8.01 1.097 11.18 0.13 30.5 31.1
90.13 8.00 8.01 1.097 11.17 0.12 30.4 31.1
95.04 8.00 8.01 1.097 11.17 0.13 30.5 30.9
100.11 8.00 8.01 1.097 11.17 0.13 30.7 31.0
105.03 8.00 8.01 1.097 11.17 0.13 30.5 31.0
110.08 8.00 8.01 1.097 11.17 0.14 30.7 31.2
115.00 8.00 8.01 1.097 11.17 0.14 30.5 31.1
120.06 8.00 8.01 1.097 11.17 0.12 30.5 30.9
125.12 8.00 8.01 1.097 11.17 0.11 30.6 31.1
130.04 8.00 8.01 1.097 11.17 0.12 30.6 31.2
135.13 8.00 8.00 1.097 11.17 0.12 30.4 31.1
140.05 8.00 8.00 1.097 11.17 0.12 30.5 31.2
145.12 8.00 8.00 1.097 11.17 0.12 30.5 31.1
150.04 8.00 8.00 1.097 11.17 0.13 30.6 31.2
155.10 8.00 8.00 1.097 11.17 0.12 30.6 31.0
160.01 8.00 8.00 1.097 11.17 0.12 30.6 31.0
165.07 8.00 8.00 1.097 11.17 0.11 30.6 31.0
170.14 8.00 8.00 1.097 11.17 0.13 30.6 31.1
175.05 8.00 8.00 1.097 11.17 0.13 30.5 30.8
180.13 8.00 8.00 1.097 11.17 0.13 30.5 31.2
185.04 8.00 8.00 1.097 11.17 0.12 30.7 31.1
190.11 8.00 8.00 1.097 11.17 0.11 30.6 31.0
195.03 8.00 8.00 1.097 11.17 0.12 30.6 30.9
200.09 8.00 8.02 1.097 11.17 0.11 30.5 31.1
205.02 8.00 8.02 1.097 11.17 0.12 30.4 31.1
210.08 8.00 8.02 1.097 11.17 0.12 30.7 30.7
215.00 8.00 8.02 1.097 11.17 0.12 30.6 31.0
220.06 8.00 8.02 1.097 11.17 0.11 30.5 31.1
225.12 8.00 8.02 1.097 11.17 0.12 30.5 31.1
230.04 8.00 8.02 1.097 11.17 0.12 30.6 31.1
235.10 8.00 8.02 1.097 11.17 0.12 30.5 31.1
240.01 8.00 8.02 1.097 11.17 0.13 30.6 31.1
245.07 8.00 8.02 1.097 11.17 0.13 30.6 31.1
250.14 8.00 8.01 1.097 11.17 0.12 30.5 31.2
255.06 8.02 8.01 1.097 11.17 0.12 30.6 31.2
260.00 8.02 8.01 1.097 11.17 0.12 30.6 31.0
265.06 8.01 8.01 1.097 11.17 0.12 30.5 31.0
270.13 8.01 8.01 1.097 11.17 0.12 30.5 31.1
275.05 8.01 8.01 1.097 11.17 0.12 30.6 30.9
280.12 8.01 8.01 1.097 11.17 0.12 30.6 30.8
285.03 8.01 8.01 1.097 11.17 0.11 30.6 31.1
290.09 8.01 8.01 1.097 11.17 0.12 30.5 31.2
295.01 8.01 8.01 1.097 11.17 0.12 30.6 31.1
300.08 8.01 8.01 1.097 11.17 0.12 30.5 30.9
305.14 8.01 8.01 1.097 11.17 0.13 30.6 31.1
310.05 8.01 8.02 1.097 11.17 0.13 30.6 31.0
315.14 8.01 8.02 1.097 11.17 0.12 30.6 31.2
320.05 8.01 8.02 1.097 11.17 0.13 30.6 31.0
325.12 8.01 8.03 1.097 11.17 0.13 30.5 31.2
330.04 8.01 8.03 1.097 11.17 0.13 30.7 30.9
335.11 8.01 8.03 1.097 11.17 0.14 30.5 31.0
340.03 8.01 8.03 1.097 11.17 0.13 30.6 31.0
345.09 8.01 8.03 1.097 11.17 0.13 30.5 31.0
350.09 8.01 8.03 1.097 11.17 0.13 30.6 31.1
355.02 8.01 8.03 1.097 11.17 0.13 30.5 30.8
360.08 8.01 8.03 1.097 11.17 0.13 30.6 31.0
365.14 8.01 8.03 1.097 11.17 0.13 30.5 30.8
370.05 8.01 8.03 1.097 11.17 0.12 30.4 30.9
375.13 8.01 8.02 1.097 11.17 0.12 30.5 30.9
380.05 8.00 8.02 1.097 11.17 0.12 30.5 31.1
385.13 8.00 8.01 1.097 11.17 0.12 30.7 30.9
390.05 8.00 8.01 1.097 11.17 0.11 30.6 31.0
395.14 8.00 8.01 1.097 11.17 0.12 30.5 31.0
400.05 8.00 8.01 1.097 11.17 0.13 30.5 30.9
405.12 8.00 8.01 1.097 11.17 0.13 30.6 31.1
410.03 8.00 8.01 1.097 11.17 0.12 30.6 30.9
415.09 8.00 8.01 1.097 11.17 0.11 30.5 30.9
420.02 8.00 8.01 1.097 11.17 0.12 30.6 30.7
425.08 8.00 8.01 1.097 11.17 0.12 30.6 30.6
430.02 8.00 8.01 1.097 11.17 0.13 30.5 31.1
435.08 8.00 8.01 1.097 11.17 0.12 30.5 31.0
440.02 8.00 8.01 1.097 11.17 0.12 30.4 31.1
445.08 8.00 8.01 1.097 11.17 0.11 30.5 30.9
450.01 8.00 8.01 1.097 11.17 0.11 30.6 31.1
455.06 8.00 8.01 1.097 11.17 0.12 30.5 30.6
460.13 8.00 8.01 1.097 11.17 0.12 30.4 30.6
465.05 8.00 8.01 1.097 11.17 0.12 30.6 31.0
470.11 8.00 8.01 1.097 11.17 0.12 30.4 31.2
475.10 8.00 8.01 1.097 11.17 0.12 30.5 30.9
480.01 8.00 8.01 1.097 11.17 0.12 30.8 30.9
485.07 8.00 8.01 1.097 11.17 0.12 30.4 31.0
490.13 8.00 8.01 1.097 11.17 0.12 30.5 30.9
495.05 8.00 8.01 1.097 11.17 0.12 30.6 31.1
500.12 8.00 8.00 1.097 11.17 0.12 30.4 31.1
505.04 8.00 8.00 1.097 11.17 0.12 30.5 30.8
510.11 8.00 8.00 1.097 11.17 0.12 30.6 30.7
515.04 8.00 8.00 1.097 11.17 0.12 30.5 31.2
520.10 8.00 8.00 1.097 11.17 0.12 30.6 31.1
525.01 8.00 8.00 1.097 11.17 0.12 30.6 31.0
530.07 8.00 8.00 1.097 11.17 0.12 30.5 30.9
535.14 8.00 8.00 1.097 11.17 0.12 30.6 31.0
540.05 8.00 8.00 1.097 11.17 0.11 30.5 30.8
545.12 8.00 8.00 1.097 11.17 0.12 30.6 30.9
550.04 8.00 8.00 1.097 11.17 0.12 30.7 30.8
555.10 8.00 8.00 1.097 11.17 0.12 30.7 31.0
560.02 8.00 8.00 1.097 11.17 0.12 30.6 30.8
565.09 8.00 8.00 1.097 11.17 0.12 30.5 30.9
570.03 8.00 8.02 1.097 11.17 0.13 30.5 30.9
575.10 8.00 8.02 1.097 11.17 0.13 30.6 31.0
580.01 8.00 8.02 1.097 11.17 0.13 30.5 31.2
585.08 8.00 8.02 1.097 11.17 0.13 30.5 30.9
590.01 8.00 8.02 1.097 11.17 0.13 30.6 31.1
595.07 8.00 8.02 1.097 11.17 0.15 30.6 31.0
600.13 8.00 8.02 1.097 11.17 0.13 30.6 30.9
605.05 8.00 8.02 1.097 11.17 0.13 30.6 30.8
610.12 8.00 8.02 1.097 11.17 0.13 30.6 30.9
615.04 8.00 8.02 1.097 11.17 0.13 30.6 30.7
620.10 8.00 8.01 1.097 11.17 0.12 30.6 30.8
625.02 8.00 8.01 1.097 11.17 0.12 30.6 30.7
630.08 8.00 8.01 1.097 11.17 0.13 30.5 31.0
635.01 8.00 8.01 1.097 11.17 0.12 30.6 30.9
640.08 8.02 8.01 1.097 11.17 0.12 30.5 31.0
645.02 8.02 8.01 1.097 11.17 0.11 30.6 31.0
650.08 8.02 8.01 1.097 11.17 0.12 30.3 30.9
655.14 8.02 8.01 1.097 11.17 0.13 30.4 30.9
660.05 8.02 8.01 1.097 11.17 0.13 30.5 30.8
665.12 8.02 8.01 1.097 11.17 0.12 30.5 31.1
670.03 8.02 8.01 1.097 11.17 0.12 30.8 31.1
675.10 8.02 8.01 1.097 11.17 0.12 30.6 31.0
680.01 8.02 8.01 1.097 11.17 0.12 30.6 30.9
685.08 8.02 8.01 1.097 11.17 0.12 30.6 30.9
690.02 8.01 8.01 1.097 11.17 0.12 30.5 30.9
695.08 8.01 8.00 1.097 11.17 0.12 30.5 31.0
700.01 8.01 8.00 1.097 11.17 0.12 30.7 30.8
705.06 8.01 8.00 1.097 11.17 0.12 30.5 30.8
710.13 8.01 8.00 1.097 11.17 0.12 30.5 31.0
715.04 8.01 8.00 1.097 11.17 0.12 30.6 30.9
720.10 8.01 8.00 1.097 11.17 0.12 30.5 31.0
725.10 8.01 8.00 1.097 11.17 0.13 30.5 30.8
730.01 8.01 8.00 1.097 11.17 0.12 30.6 30.9
735.07 8.01 8.00 1.097 11.17 0.12 30.6 30.9
740.14 8.01 8.00 1.097 11.17 0.12 30.5 31.0
745.05 8.01 8.00 1.097 11.17 0.12 30.4 30.8
750.13 8.01 8.00 1.097 11.17 0.12 30.6 31.0
755.05 8.00 8.00 1.097 11.17 0.13 30.6 30.8
760.12 8.00 8.00 1.097 11.17 0.12 30.4 30.8
765.04 8.00 8.00 1.097 11.17 0.12 30.6 31.0
770.11 8.00 8.00 1.097 11.17 0.12 30.6 30.9
775.02 8.00 8.00 1.097 11.17 0.12 30.6 30.9
780.08 8.00 8.00 1.097 11.17 0.12 30.6 30.9
785.14 8.00 8.00 1.097 11.17 0.12 30.7 31.0
790.05 8.00 8.00 1.097 11.17 0.13 30.7 31.0
795.12 8.00 8.00 1.097 11.17 0.12 30.4 30.8
800.03 8.00 8.00 1.097 11.17 0.12 30.4 30.9
805.10 8.00 8.00 1.097 11.17 0.12 30.6 31.0
810.02 8.00 8.00 1.097 11.17 0.12 30.4 30.9
815.09 8.00 8.00 1.097 11.17 0.13 30.5 30.7
820.02 8.00 8.00 1.097 11.17 0.14 30.4 30.8
825.08 8.00 8.00 1.097 11.17 0.13 30.6 30.9
830.14 8.00 8.00 1.097 11.17 0.12 30.7 30.8
835.05 8.00 8.00 1.097 11.17 0.13 30.7 30.8
840.12 8.00 8.00 1.097 11.17 0.13 30.6 30.9
845.04 8.00 8.00 1.097 11.17 0.14 30.5 31.0
850.12 8.00 8.00 1.097 11.17 0.14 30.4 30.8
855.03 8.00 8.00 1.097 11.17 0.13 30.4 31.0
860.08 8.00 8.00 1.097 11.17 0.13 30.5 31.0
865.00 8.00 8.00 1.097 11.17 0.13 30.6 30.7
870.05 8.00 8.00 1.097 11.17 0.12 30.6 30.9
875.12 8.00 8.00 1.097 11.17 0.12 30.6 30.9
880.02 8.00 8.00 1.097 11.17 0.12 30.6 30.9
885.09 8.00 8.00 1.097 11.17 0.13 30.5 30.7
890.01 8.00 8.00 1.097 11.17 0.12 30.5 30.7
895.08 8.00 8.00 1.097 11.17 0.12 30.5 30.9
900.00 8.00 8.00 1.097 11.17 0.12 30.4 30.8
905.06 8.00 8.00 1.097 11.17 0.12 30.4 30.8
910.12 8.00 8.00 1.097 11.17 0.13 30.5 30.6
915.03 8.00 8.00 1.097 11.17 0.13 30.5 30.9
920.09 8.00 8.00 1.097 11.17 0.12 30.5 30.7
925.00 8.00 8.00 1.097 11.17 0.12 30.6 30.8
930.06 8.00 8.00 1.097 11.17 0.12 30.5 30.8
935.12 8.00 8.00 1.097 11.17 0.12 30.5 30.8
940.04 8.00 8.00 1.097 11.17 0.12 30.6 30.7
945.11 8.00 8.00 1.097 11.17 0.13 30.7 30.7
950.04 8.00 8.00 1.097 11.17 0.12 30.6 30.7
955.10 8.00 8.00 1.097 11.17 0.12 30.6 30.9
960.02 8.00 8.00 1.097 11.17 0.11 30.6 30.9
965.07 8.00 8.00 1.097 11.17 0.12 30.5 31.0
970.13 8.00 8.00 1.097 11.17 0.12 30.4 30.7
975.11 8.00 8.00 1.097 11.17 0.13 30.5 30.9
980.02 8.00 8.00 1.097 11.17 0.13 30.5 30.7
985.09 8.00 8.00 1.097 11.17 0.11 30.6 30.8
990.02 8.00 8.00 1.097 11.17 0.12 30.6 30.7
995.08 8.00 8.00 1.097 11.17 0.12 30.7 30.8
1000.00 8.00 8.00 1.097 11.17 0.12 30.6 30.6
1005.07 8.00 8.00 1.175 11.17 0.13 30.7 30.8
1010.15 8.00 8.00 1.175 11.17 0.13 30.5 30.6
1015.06 8.00 8.00 1.175 11.17 0.19 30.6 30.7
1020.13 8.00 8.00 1.175 11.14 0.39 30.5 30.8
1025.04 8.00 8.00 1.175 11.10 0.68 30.5 31.0
1030.10 8.00 8.00 1.175 11.07 1.14 30.5 30.9
1035.02 8.00 8.00 1.175 11.09 1.35 30.5 31.0
1040.08 8.00 8.00 1.175 11.12 1.33 30.4 30.7
1045.14 8.00 8.00 1.175 11.12 1.36 30.3 30.9
1050.05 8.00 8.00 1.175 11.13 1.29 30.5 30.8
1055.12 8.00 8.15 1.175 11.13 1.30 30.4 30.7
1060.05 8.22 8.15 1.175 11.15 1.12 30.5 30.8
1065.14 8.22 8.37 1.175 11.15 1.13 30.4 31.1
1070.06 8.48 8.37 1.175 11.17 1.08 30.4 31.1
1075.13 8.48 8.37 1.175 11.17 1.06 30.3 31.0
1080.04 8.48 8.37 1.175 11.16 0.99 30.4 31.1
1085.10 8.48 8.37 1.175 11.15 1.05 30.3 31.1
1090.02 8.48 8.37 1.175 11.16 1.07 30.7 30.9
1095.08 8.48 8.37 1.175 11.16 0.95 30.5 30.6
1100.14 8.48 9.14 1.175 11.15 0.85 30.5 30.9
1105.06 9.29 9.14 1.175 11.16 0.86 30.6 30.7
1110.14 9.29 9.78 1.175 11.16 0.97 30.5 30.7
1115.06 9.94 9.78 1.175 11.17 0.81 30.4 30.6
1120.14 9.94 9.78 1.175 11.17 0.76 30.6 30.8
1125.05 9.94 9.78 1.175 11.17 0.83 30.5 31.0
1130.13 9.94 9.78 1.175 11.16 0.76 30.5 30.8
1135.04 9.94 9.78 1.175 11.16 0.71 30.5 31.0
1140.11 9.94 10.62 1.175 11.16 0.76 30.7 30.9
1145.03 10.78 10.62 1.175 11.16 0.68 30.6 30.7
1150.11 10.78 11.28 1.175 11.16 0.64 30.5 30.9
1155.04 11.40 11.28 1.175 11.16 0.67 30.3 30.8
1160.12 11.40 11.28 1.175 11.16 0.62 30.7 30.7
1165.04 11.40 11.28 1.175 11.16 0.64 30.4 30.8
1170.10 11.40 11.28 1.175 11.17 0.59 30.6 30.8
1175.02 11.40 11.28 1.175 11.17 0.58 30.5 30.9
1180.07 11.40 11.97 1.175 11.17 0.59 30.7 30.8
1185.00 12.08 12.48 1.175 11.17 0.55 30.6 30.9
1190.09 12.61 12.48 1.175 11.16 0.54 30.6 31.0
1195.02 12.61 12.48 1.175 11.17 0.54 30.6 30.8
1200.08 12.61 12.48 1.175 11.17 0.53 30.6 30.9
1205.00 12.61 12.48 1.175 11.17 0.52 30.6 31.0
1210.05 12.61 12.48 1.175 11.16 0.51 30.6 30.7
1215.12 12.61 13.05 1.175 11.17 0.50 30.4 31.1
1220.05 13.15 13.45 1.175 11.16 0.50 30.7 30.8
1225.14 13.55 13.45 1.175 11.16 0.49 30.7 30.6
1230.07 13.55 13.45 1.175 11.17 0.47 30.6 30.7
1235.13 13.55 13.45 1.175 11.17 0.47 30.6 30.9
1240.04 13.55 13.45 1.175 11.16 0.48 30.5 30.8
1245.11 13.55 13.45 1.175 11.16 0.47 30.6 30.7
1250.02 13.92 13.83 1.175 11.17 0.46 30.6 30.8
1255.12 13.92 14.14 1.175 11.17 0.43 30.6 30.8
1260.04 14.20 14.14 1.175 11.17 0.42 30.5 30.9
1265.12 14.20 14.14 1.175 11.17 0.43 30.6 30.9
1270.04 14.20 14.14 1.175 11.16 0.43 30.7 30.8
1275.10 14.20 14.14 1.175 11.17 0.43 30.6 30.9
1280.02 14.20 14.46 1.175 11.17 0.42 30.5 30.8
1285.10 14.50 14.46 1.175 11.17 0.41 30.5 30.9
1290.03 14.71 14.67 1.175 11.17 0.39 30.6 30.7
1295.13 14.71 14.67 1.175 11.17 0.41 30.5 30.8
1300.04 14.71 14.67 1.175 11.17 0.40 30.6 31.0
1305.10 14.71 14.67 1.175 11.16 0.38 30.6 30.9
1310.02 14.71 14.67 1.175 11.16 0.37 30.5 30.7
1315.07 14.71 14.88 1.175 11.16 0.41 30.6 30.8
1320.00 14.94 15.07 1.175 11.17 0.39 30.6 30.9
1325.09 15.11 15.07 1.175 11.17 0.39 30.7 30.8
1330.02 15.11 15.07 1.175 11.17 0.39 30.6 30.7
1335.08 15.11 15.07 1.175 11.17 0.39 30.6 30.7
1340.00 15.11 15.07 1.175 11.17 0.40 30.6 30.8
1345.06 15.11 15.25 1.175 11.17 0.38 30.5 30.8
1350.00 15.27 15.37 1.175 11.16 0.38 30.6 30.9
1355.09 15.38 15.37 1.175 11.17 0.38 30.7 30.8
1360.02 15.38 15.37 1.175 11.17 0.37 30.7 30.7
1365.09 15.38 15.37 1.175 11.17 0.36 30.6 31.0
1370.01 15.38 15.37 1.175 11.17 0.36 30.6 30.8
1375.08 15.38 15.37 1.175 11.17 0.35 30.5 31.0
1380.00 15.51 15.49 1.175 11.17 0.35 30.7 30.7
1385.08 15.60 15.60 1.175 11.17 0.37 30.6 31.0
1390.03 15.60 15.60 1.175 11.17 0.35 30.6 30.7
1395.09 15.60 15.60 1.175 11.17 0.34 30.5 30.7
1400.01 15.60 15.60 1.175 11.17 0.34 30.6 30.7
1405.08 15.60 15.60 1.175 11.17 0.34 30.6 30.7
1410.00 15.60 15.71 1.175 11.17 0.34 30.4 30.7
1415.07 15.72 15.78 1.175 11.17 0.35 30.5 30.8
1420.02 15.80 15.78 1.175 11.17 0.34 30.4 30.8
1425.09 15.80 15.78 1.175 11.17 0.34 30.4 30.8
1430.01 15.80 15.78 1.175 11.17 0.33 30.7 30.8
1435.08 15.80 15.78 1.175 11.16 0.34 30.6 30.8
1440.13 15.80 15.83 1.175 11.17 0.33 30.6 30.7
1445.06 15.85 15.91 1.175 11.17 0.33 30.5 30.7
1450.01 15.91 15.91 1.175 11.17 0.33 30.5 30.7
1455.08 15.91 15.91 1.175 11.17 0.32 30.5 30.8
1460.02 15.91 15.91 1.175 11.17 0.31 30.6 30.7
1465.08 15.91 15.91 1.175 11.17 0.34 30.4 30.8
1470.13 15.91 15.94 1.175 11.17 0.31 30.5 31.0
1475.12 15.99 15.94 1.175 11.17 0.32 30.5 30.7
1480.05 16.05 15.99 1.175 11.17 0.33 30.5 30.9
1485.13 16.05 15.99 1.175 11.17 0.32 30.4 30.9
1490.04 16.05 15.99 1.175 11.17 0.32 30.5 30.8
1495.10 16.05 15.99 1.175 11.17 0.32 30.6 31.0
1500.01 16.05 16.08 1.175 11.17 0.33 30.5 30.9
1505.09 16.06 16.08 1.175 11.17 0.31 30.6 30.7
1510.02 16.08 16.12 1.175 11.17 0.31 30.7 30.9
1515.11 16.08 16.12 1.175 11.17 0.33 30.6 30.8
1520.02 16.08 16.12 1.175 11.17 0.31 30.4 30.8
1525.08 16.08 16.12 1.175 11.17 0.32 30.5 30.8
1530.14 16.08 16.12 1.175 11.17 0.33 30.6 30.7
1535.05 16.13 16.15 1.175 11.17 0.33 30.6 30.5
1540.14 16.19 16.18 1.175 11.17 0.32 30.7 30.7
1545.07 16.19 16.18 1.175 11.17 0.32 30.6 30.7
1550.13 16.19 16.18 1.175 11.16 0.32 30.6 30.7
1555.04 16.19 16.18 1.175 11.17 0.30 30.5 30.8
1560.12 16.19 16.18 1.175 11.17 0.30 30.5 30.8
1565.03 16.21 16.20 1.175 11.17 0.32 30.6 30.8
1570.11 16.21 16.22 1.175 11.16 0.33 30.6 30.9
1575.04 16.22 16.22 1.175 11.17 0.33 30.6 31.0
1580.12 16.22 16.22 1.175 11.17 0.33 30.6 30.7
1585.03 16.22 16.22 1.175 11.17 0.33 30.6 30.8
1590.09 16.22 16.22 1.175 11.17 0.32 30.6 30.8
1595.02 16.22 16.26 1.175 11.17 0.32 30.5 30.8
1600.12 16.28 16.28 1.175 11.17 0.33 30.6 30.7
1605.06 16.32 16.28 1.175 11.17 0.34 30.4 30.8
1610.14 16.32 16.28 1.175 11.17 0.33 30.5 30.9
1615.05 16.32 16.28 1.175 11.17 0.32 30.5 30.7
1620.12 16.32 16.28 1.175 11.17 0.32 30.3 30.7
1625.04 16.32 16.28 1.175 11.17 0.31 30.5 30.9
1630.12 16.30 16.31 1.175 11.17 0.31 30.5 30.7
1635.05 16.32 16.31 1.175 11.17 0.30 30.5 30.9
1640.14 16.32 16.31 1.175 11.17 0.32 30.5 30.8
1645.05 16.32 16.31 1.175 11.17 0.30 30.4 30.6
1650.11 16.32 16.31 1.175 11.17 0.30 30.5 30.6
1655.02 16.32 16.34 1.175 11.17 0.30 30.6 30.5
1660.09 16.34 16.36 1.175 11.17 0.30 30.6 30.9
1665.04 16.38 16.36 1.175 11.17 0.31 30.4 30.6
1670.11 16.38 16.36 1.175 11.17 0.31 30.5 30.7
1675.02 16.38 16.36 1.175 11.17 0.32 30.6 30.7
1680.09 16.38 16.36 1.175 11.17 0.30 30.6 30.9
1685.01 16.38 16.37 1.175 11.17 0.30 30.5 30.7
1690.09 16.39 16.38 1.175 11.17 0.30 30.6 30.8
1695.03 16.39 16.38 1.175 11.17 0.32 30.5 30.7
1700.10 16.39 16.38 1.175 11.17 0.30 30.5 30.8
1705.02 16.39 16.38 1.175 11.17 0.30 30.4 30.8
1710.09 16.39 16.38 1.175 11.17 0.32 30.6 30.6
1715.01 16.39 16.42 1.175 11.16 0.31 30.6 30.8
1720.09 16.39 16.43 1.175 11.17 0.31 30.6 30.7
1725.11 16.41 16.43 1.175 11.17 0.30 30.6 30.8
1730.04 16.41 16.43 1.175 11.17 0.31 30.4 30.8
1735.10 16.41 16.43 1.175 11.17 0.29 30.4 30.7
1740.02 16.41 16.43 1.175 11.17 0.31 30.6 30.6
1745.08 16.41 16.44 1.175 11.16 0.31 30.4 30.7
1750.01 16.43 16.46 1.175 11.17 0.31 30.4 30.7
1755.09 16.42 16.46 1.175 11.17 0.30 30.6 30.6
1760.02 16.42 16.46 1.175 11.17 0.30 30.6 30.9
1765.08 16.42 16.46 1.175 11.17 0.31 30.5 31.0
1770.00 16.42 16.46 1.175 11.17 0.30 30.5 30.9
1775.06 16.42 16.47 1.175 11.17 0.31 30.6 31.0
1780.13 16.44 16.47 1.175 11.17 0.30 30.5 30.8
1785.06 16.46 16.45 1.175 11.17 0.32 30.5 30.8
1790.14 16.46 16.45 1.175 11.17 0.31 30.5 30.8
1795.05 16.46 16.45 1.175 11.17 0.30 30.5 30.6
1800.12 16.46 16.45 1.175 11.17 0.31 30.5 30.8
1805.03 16.46 16.43 1.175 11.17 0.32 30.6 30.7
1810.11 16.48 16.43 1.175 11.17 0.30 30.5 30.9
1815.04 16.48 16.45 1.175 11.17 0.30 30.5 30.8
1820.12 16.48 16.45 1.175 11.17 0.31 30.4 30.7
1825.04 16.48 16.45 1.175 11.17 0.32 30.5 30.6
1830.10 16.48 16.45 1.175 11.17 0.30 30.5 30.8
1835.01 16.48 16.45 1.175 11.17 0.31 30.6 30.8
1840.08 16.49 16.47 1.175 11.17 0.32 30.5 30.8
1845.02 16.46 16.48 1.175 11.17 0.34 30.6 30.9
1850.13 16.46 16.48 1.175 11.17 0.31 30.4 30.8
1855.04 16.46 16.48 1.175 11.17 0.31 30.4 30.8
1860.12 16.46 16.48 1.175 11.17 0.32 30.5 30.7
1865.03 16.46 16.48 1.175 11.17 0.31 30.5 30.6
1870.09 16.47 16.50 1.175 11.17 0.30 30.6 30.6
1875.03 16.52 16.52 1.175 11.17 0.30 30.6 30.6
1880.12 16.52 16.52 1.175 11.17 0.32 30.3 30.5
1885.03 16.52 16.52 1.175 11.17 0.29 30.4 30.7
1890.09 16.52 16.52 1.175 11.17 0.29 30.5 30.6
1895.00 16.52 16.52 1.175 11.17 0.29 30.5 30.7
1900.06 16.54 16.51 1.175 11.17 0.31 30.6 30.6
1905.01 16.56 16.51 1.175 11.16 0.30 30.7 30.7
1910.09 16.56 16.51 1.175 11.16 0.30 30.6 30.7
1915.01 16.56 16.51 1.175 11.17 0.30 30.5 30.8
1920.07 16.56 16.51 1.175 11.17 0.32 30.6 30.7
1925.13 16.56 16.51 1.175 11.17 0.29 30.6 30.5
1930.04 16.54 16.51 1.175 11.17 0.30 30.4 30.5
1935.13 16.53 16.54 1.175 11.17 0.31 30.5 30.7
1940.07 16.53 16.54 1.175 11.17 0.32 30.3 30.6
1945.13 16.53 16.54 1.175 11.17 0.29 30.4 30.8
1950.05 16.53 16.54 1.175 11.17 0.28 30.4 30.6
1955.12 16.53 16.54 1.175 11.17 0.30 30.6 30.7
1960.04 16.54 16.54 1.175 11.17 0.30 30.6 30.6
1965.13 16.54 16.54 1.175 11.17 0.29 30.5 30.7
1970.08 16.54 16.54 1.175 11.17 0.28 30.5 30.8
1975.14 16.54 16.54 1.175 11.17 0.30 30.6 30.5
1980.05 16.54 16.54 1.175 11.17 0.30 30.4 30.5
1985.12 16.54 16.54 1.175 11.17 0.30 30.4 30.8
1990.03 16.54 16.55 1.175 11.17 0.29 30.5 30.8
1995.00 16.54 16.53 1.175 11.17 0.30 30.7 30.7
2000.06 16.55 16.53 1.175 11.16 0.30 30.5 30.7
2005.14 16.55 16.53 1.253 11.17 0.29 30.5 30.6
2010.06 16.55 16.53 1.253 11.01 2.02 30.4 30.5
2015.11 16.55 16.53 1.253 11.06 2.29 30.4 30.8
2020.02 16.61 16.57 1.253 11.07 2.14 30.3 30.6
2025.11 16.74 16.68 1.253 11.10 2.08 30.1 30.7
2030.05 16.74 16.68 1.253 11.10 2.08 30.3 30.7
2035.12 16.74 16.68 1.253 11.11 2.05 30.2 30.6
2040.03 16.74 16.68 1.253 11.13 2.03 30.3 30.8
2045.10 16.74 17.24 1.253 11.13 1.92 30.2 30.9
2050.03 17.34 17.71 1.253 11.13 1.80 30.3 30.7
2055.13 17.83 17.71 1.253 11.13 1.75 30.3 30.6
2060.06 17.83 17.71 1.253 11.14 1.76 30.4 30.7
2065.11 17.83 17.71 1.253 11.15 1.76 30.4 30.6
2070.02 17.83 18.46 1.253 11.13 1.71 30.3 30.6
2075.10 18.60 19.04 1.253 11.14 1.59 30.3 30.6
2080.04 19.17 19.04 1.253 11.14 1.59 30.3 30.7
2085.12 19.17 19.04 1.253 11.14 1.54 30.3 30.6
2090.03 19.17 19.04 1.253 11.14 1.58 30.3 30.7
2095.09 19.85 19.74 1.253 11.15 1.50 30.3 30.6
2100.11 20.40 20.28 1.253 11.14 1.48 30.3 30.7
2105.05 20.40 20.28 1.253 11.14 1.46 30.3 30.6
2110.12 20.40 20.28 1.253 11.16 1.34 30.5 30.7
2115.03 20.40 20.90 1.253 11.14 1.34 30.3 30.8
2120.11 21.01 21.35 1.253 11.15 1.30 30.3 30.6
2125.05 21.48 21.35 1.253 11.15 1.28 30.3 30.7
2130.13 21.48 21.35 1.253 11.15 1.24 30.2 30.6
2135.04 21.48 21.35 1.253 11.15 1.26 30.4 30.4
2140.10 21.93 21.80 1.253 11.15 1.21 30.3 30.7
2145.04 22.29 22.20 1.253 11.15 1.16 30.2 30.8
2150.13 22.29 22.20 1.253 11.15 1.19 30.2 30.5
2155.04 22.29 22.20 1.253 11.15 1.13 30.3 30.5
2160.12 22.29 22.62 1.253 11.15 1.10 30.5 30.8
2165.05 22.93 22.89 1.253 11.15 1.11 30.4 30.8
2170.01 22.93 22.89 1.253 11.15 1.08 30.4 30.8
2175.07 22.93 22.89 1.253 11.16 1.05 30.4 30.6
2180.13 22.93 23.18 1.253 11.15 1.07 30.5 30.7
2185.06 23.22 23.39 1.253 11.16 1.01 30.4 30.7
2190.00 23.47 23.39 1.253 11.15 1.02 30.3 30.7
2195.08 23.47 23.39 1.253 11.15 1.02 30.3 30.5
2200.00 23.47 23.62 1.253 11.15 1.04 30.3 30.6
2205.07 23.74 23.85 1.253 11.16 0.94 30.6 30.4
2210.01 23.93 23.85 1.253 11.15 0.97 30.5 30.6
2215.09 23.93 23.85 1.253 11.15 0.99 30.4 30.7
2220.02 23.93 24.08 1.253 11.16 0.95 30.5 30.8
2225.13 24.09 24.24 1.253 11.16 0.95 30.4 30.7
2230.07 24.24 24.24 1.253 11.16 0.88 30.3 30.8
2235.00 24.24 24.24 1.253 11.15 0.89 30.6 30.6
2240.06 24.24 24.24 1.253 11.15 0.91 30.7 30.7
2245.12 24.43 24.45 1.253 11.15 0.93 30.5 30.8
2250.08 24.55 24.45 1.253 11.16 0.90 30.4 30.7
2255.02 24.55 24.45 1.253 11.16 0.88 30.4 30.7
2260.08 24.55 24.45 1.253 11.16 0.90 30.5 30.8
2265.00 24.68 24.73 1.253 11.15 0.89 30.5 30.9
2270.11 24.77 24.73 1.253 11.16 0.89 30.4 30.6
2275.04 24.77 24.73 1.253 11.16 0.85 30.5 30.6
2280.09 24.77 24.73 1.253 11.16 0.89 30.5 30.7
2285.02 24.90 24.96 1.253 11.16 0.88 30.5 30.5
2290.13 24.98 24.96 1.253 11.15 0.86 30.4 30.7
2295.06 24.98 24.96 1.253 11.16 0.88 30.4 30.8
2300.12 24.98 24.96 1.253 11.16 0.84 30.4 30.7
2305.04 25.04 25.13 1.253 11.16 0.85 30.5 30.6
2310.01 25.08 25.13 1.253 11.15 0.86 30.4 30.7
2315.08 25.08 25.13 1.253 11.16 0.82 30.5 30.6
2320.00 25.08 25.21 1.253 11.15 0.81 30.5 30.7
2325.08 25.17 25.25 1.253 11.15 0.87 30.3 30.6
2330.02 25.29 25.25 1.253 11.16 0.83 30.5 30.8
2335.09 25.29 25.25 1.253 11.16 0.81 30.5 30.7
2340.02 25.29 25.35 1.253 11.15 0.80 30.2 30.6
2345.09 25.38 25.42 1.253 11.15 0.82 30.4 30.7
2350.11 25.40 25.42 1.253 11.15 0.79 30.5 30.6
2355.04 25.40 25.42 1.253 11.16 0.78 30.5 30.8
2360.10 25.40 25.43 1.253 11.16 0.77 30.5 30.6
2365.03 25.45 25.42 1.253 11.16 0.81 30.4 30.8
2370.00 25.45 25.42 1.253 11.16 0.78 30.4 30.8
2375.07 25.45 25.42 1.253 11.16 0.76 30.4 30.4
2380.13 25.45 25.51 1.253 11.16 0.79 30.5 30.7
2385.06 25.59 25.58 1.253 11.15 0.81 30.6 30.7
2390.03 25.59 25.58 1.253 11.15 0.81 30.4 30.7
2395.09 25.59 25.58 1.253 11.16 0.79 30.5 30.7
2400.01 25.59 25.62 1.253 11.15 0.83 30.6 30.5
2405.09 25.65 25.64 1.253 11.15 0.78 30.5 30.7
2410.06 25.65 25.64 1.253 11.15 0.83 30.6 30.8
2415.12 25.65 25.64 1.253 11.16 0.77 30.6 30.6
2420.04 25.67 25.66 1.253 11.16 0.77 30.5 30.8
2425.13 25.68 25.68 1.253 11.16 0.80 30.5 30.7
2430.07 25.68 25.68 1.253 11.16 0.76 30.4 30.5
2435.13 25.68 25.68 1.253 11.15 0.78 30.5 30.8
2440.05 25.70 25.70 1.253 11.15 0.79 30.4 30.8
2445.13 25.72 25.72 1.253 11.16 0.78 30.5 30.6
2450.07 25.72 25.72 1.253 11.16 0.75 30.5 30.7
2455.12 25.72 25.72 1.253 11.16 0.72 30.4 30.8
2460.04 25.73 25.74 1.253 11.16 0.78 30.4 30.7
2465.14 25.74 25.74 1.253 11.15 0.76 30.2 30.6
2470.07 25.74 25.74 1.253 11.16 0.71 30.5 30.4
2475.13 25.74 25.74 1.253 11.15 0.78 30.5 30.6
2480.05 25.79 25.83 1.253 11.15 0.76 30.5 30.7
2485.01 25.83 25.83 1.253 11.16 0.75 30.2 30.5
2490.09 25.83 25.83 1.253 11.16 0.76 30.4 30.7
2495.02 25.83 25.85 1.253 11.16 0.73 30.4 30.6
2500.09 25.85 25.87 1.253 11.16 0.76 30.6 30.5
2505.04 25.87 25.87 1.253 11.16 0.70 30.5 30.7
2510.12 25.87 25.87 1.253 11.15 0.78 30.6 30.5
2515.03 25.87 25.88 1.253 11.15 0.76 30.5 30.7
2520.10 25.89 25.89 1.253 11.16 0.76 30.6 30.8
2525.06 25.89 25.89 1.253 11.16 0.72 30.6 30.7
2530.12 25.89 25.89 1.253 11.16 0.74 30.4 30.6
2535.03 25.89 25.84 1.253 11.16 0.71 30.5 30.8
2540.10 25.85 25.81 1.253 11.16 0.71 30.4 30.6
2545.05 25.85 25.81 1.253 11.16 0.77 30.6 30.5
2550.12 25.85 25.81 1.253 11.16 0.74 30.5 30.7
2555.03 25.87 25.84 1.253 11.16 0.72 30.5 30.5
2560.13 25.95 25.93 1.253 11.16 0.72 30.6 30.8
2565.08 25.95 25.93 1.253 11.16 0.75 30.6 30.8
2570.14 25.95 25.93 1.253 11.16 0.73 30.5 30.8
2575.05 25.93 25.92 1.253 11.16 0.75 30.5 30.7
2580.01 25.92 25.91 1.253 11.16 0.74 30.5 30.6
2585.10 25.92 25.91 1.253 11.16 0.70 30.5 30.6
2590.02 25.92 25.91 1.253 11.16 0.74 30.4 30.8
2595.08 25.91 25.91 1.253 11.15 0.74 30.5 30.6
2600.10 25.88 25.87 1.253 11.16 0.76 30.5 30.7
2605.05 25.88 25.87 1.253 11.16 0.74 30.5 30.7
2610.12 25.88 25.87 1.253 11.16 0.73 30.5 30.7
2615.03 25.85 25.98 1.253 11.16 0.74 30.4 30.6
2620.01 25.87 25.98 1.253 11.15 0.78 30.4 30.8
2625.08 25.87 25.98 1.253 11.16 0.72 30.5 30.7
2630.13 25.87 25.95 1.253 11.16 0.75 30.4 30.8
2635.06 25.89 25.95 1.253 11.16 0.72 30.4 30.8
2640.01 25.96 25.95 1.253 11.16 0.74 30.5 30.6
2645.09 25.96 25.95 1.253 11.16 0.72 30.4 30.8
2650.01 25.96 25.93 1.253 11.15 0.76 30.2 30.4
2655.09 25.93 25.92 1.253 11.16 0.72 30.4 30.7
2660.05 25.93 25.92 1.253 11.16 0.72 30.5 30.5
2665.10 25.93 25.92 1.253 11.15 0.75 30.5 30.6
2670.02 25.93 25.93 1.253 11.16 0.77 30.3 30.5
2675.09 25.97 25.94 1.253 11.16 0.77 30.4 30.7
2680.05 25.97 25.94 1.253 11.16 0.73 30.5 30.7
2685.12 25.97 25.94 1.253 11.16 0.73 30.5 30.6
2690.03 25.95 25.93 1.253 11.15 0.74 30.6 30.7
2695.12 25.93 25.92 1.253 11.15 0.77 30.5 30.7
2700.06 25.93 25.92 1.253 11.16 0.78 30.4 30.5
2705.12 25.93 25.92 1.253 11.16 0.73 30.5 30.6
2710.04 25.86 25.98 1.253 11.16 0.70 30.4 30.5
2715.14 25.87 25.95 1.253 11.16 0.73 30.3 30.7
2720.07 25.87 25.95 1.253 11.16 0.73 30.4 30.6
2725.14 25.87 25.95 1.253 11.16 0.75 30.4 30.7
2730.05 25.90 25.95 1.253 11.16 0.73 30.4 30.5
2735.00 25.90 25.95 1.253 11.16 0.71 30.5 30.7
2740.08 25.90 25.95 1.253 11.15 0.75 30.4 30.7
2745.14 25.90 25.95 1.253 11.15 0.78 30.6 30.5
2750.05 25.98 25.95 1.253 11.15 0.78 30.6 30.6
2755.01 25.97 25.95 1.253 11.16 0.73 30.5 30.8
2760.09 25.97 25.95 1.253 11.16 0.75 30.3 30.8
2765.00 25.97 25.93 1.253 11.15 0.74 30.5 30.7
2770.08 25.95 25.92 1.253 11.16 0.76 30.5 30.8
2775.02 25.93 25.92 1.253 11.16 0.72 30.4 30.8
2780.10 25.93 25.92 1.253 11.16 0.74 30.4 30.8
2785.02 25.93 25.91 1.253 11.16 0.68 30.4 30.7
2790.09 25.98 25.93 1.253 11.16 0.70 30.5 30.5
2795.05 25.98 25.93 1.253 11.16 0.69 30.5 30.7
2800.10 25.98 25.93 1.253 11.16 0.71 30.5 30.7
2805.02 25.98 25.93 1.253 11.15 0.73 30.4 30.8
2810.10 25.94 25.99 1.253 11.16 0.73 30.4 30.6
2815.05 25.94 25.99 1.253 11.16 0.73 30.5 30.8
2820.12 25.94 25.99 1.253 11.16 0.76 30.5 30.6
2825.04 25.92 25.96 1.253 11.16 0.76 30.5 30.6
2830.13 25.92 25.94 1.253 11.16 0.73 30.5 30.8
2835.07 25.92 25.94 1.253 11.16 0.76 30.4 30.6
2840.13 25.92 25.94 1.253 11.16 0.77 30.4 30.6
2845.05 25.84 25.93 1.253 11.16 0.71 30.5 30.7
2850.01 25.86 25.92 1.253 11.16 0.76 30.5 30.7
2855.10 25.86 25.92 1.253 11.15 0.76 30.4 30.8
2860.02 25.86 25.92 1.253 11.16 0.76 30.5 30.8
2865.08 26.01 25.91 1.253 11.15 0.79 30.5 30.7
2870.04 25.97 25.91 1.253 11.15 0.79 30.5 30.7
2875.11 25.97 25.91 1.253 11.16 0.77 30.6 30.7
2880.03 25.97 25.91 1.253 11.16 0.71 30.4 30.7
2885.09 25.96 25.92 1.253 11.16 0.74 30.6 30.7
2890.05 25.94 25.92 1.253 11.16 0.78 30.4 30.8
2895.13 25.94 25.92 1.253 11.16 0.77 30.4 30.7
2900.04 25.94 25.98 1.253 11.16 0.74 30.4 30.6
2905.12 25.93 26.02 1.253 11.15 0.74 30.5 30.9
2910.06 25.99 26.02 1.253 11.16 0.74 30.6 30.8
2915.00 25.99 26.02 1.253 11.16 0.74 30.4 30.8
2920.06 25.99 25.98 1.253 11.16 0.71 30.5 30.5
2925.13 25.94 25.95 1.253 11.16 0.72 30.5 30.7
2930.09 25.94 25.95 1.253 11.16 0.73 30.5 30.7
2935.02 25.94 25.95 1.253 11.16 0.73 30.5 30.6
2940.07 25.94 26.00 1.253 11.16 0.75 30.7 30.6
2945.02 25.96 26.03 1.253 11.16 0.72 30.5 30.7
2950.13 25.96 26.03 1.253 11.16 0.73 30.3 30.8
2955.04 25.96 26.03 1.253 11.15 0.78 30.3 30.6
2960.10 25.94 25.99 1.253 11.16 0.73 30.5 30.6
2965.04 25.99 25.91 1.253 11.16 0.77 30.4 30.6
2970.14 25.99 25.91 1.253 11.16 0.73 30.4 30.6
2975.11 25.99 25.91 1.253 11.16 0.74 30.4 30.8
2980.02 26.01 25.96 1.253 11.15 0.71 30.3 30.6
2985.11 25.96 25.97 1.253 11.16 0.79 30.4 30.5
2990.06 25.96 25.97 1.253 11.16 0.75 30.3 30.7
2995.12 25.96 25.97 1.253 11.16 0.69 30.5 30.8
3000.03 25.94 25.94 1.253 11.16 0.74 30.3 30.6
3005.00 25.99 25.94 1.331 11.15 0.76 30.3 30.6
3010.07 25.99 25.94 1.331 11.03 2.74 30.1 30.7
3015.13 25.99 25.94 1.331 11.05 3.23 30.1 30.7
3020.04 26.10 26.11 1.331 11.07 3.17 29.9 30.5
3025.00 26.16 26.11 1.331 11.09 3.14 30.1 30.6
3030.08 26.16 26.11 1.331 11.08 3.04 30.1 30.7
3035.00 26.16 26.53 1.331 11.08 2.98 30.2 30.8
3040.07 26.91 26.87 1.331 11.09 2.92 30.2 30.6
3045.02 26.91 26.87 1.331 11.11 2.95 30.1 30.6
3050.09 26.91 26.87 1.331 11.11 2.78 30.3 30.7
3055.01 27.44 27.72 1.331 11.12 2.72 30.2 30.6
3060.10 27.87 27.72 1.331 11.11 2.59 30.0 30.7
3065.00 27.87 27.72 1.331 11.11 2.46 30.2 30.7
3070.06 28.35 28.25 1.331 11.12 2.54 30.2 30.5
3075.15 28.73 28.66 1.331 11.13 2.49 30.1 30.7
3080.08 28.73 28.66 1.331 11.12 2.40 30.1 30.6
3085.00 28.73 29.19 1.331 11.11 2.38 30.3 30.6
3090.07 29.58 29.55 1.331 11.11 2.27 30.2 30.8
3095.01 29.58 29.55 1.331 11.11 2.24 30.2 30.7
3100.12 29.58 29.55 1.331 11.12 2.31 30.1 30.8
3105.03 29.95 30.11 1.331 11.12 2.24 30.2 30.8
3110.00 30.18 30.11 1.331 11.12 2.17 30.3 30.5
3115.07 30.18 30.11 1.331 11.12 2.19 30.1 30.7
3120.14 30.57 30.51 1.331 11.14 2.13 30.1 30.7
3125.08 30.81 30.79 1.331 11.13 2.03 30.2 30.6
3130.03 30.81 30.79 1.331 11.14 2.02 30.2 30.6
3135.09 31.08 31.06 1.331 11.13 2.05 30.2 30.6
3140.03 31.35 31.26 1.331 11.12 1.97 30.2 30.8
3145.14 31.35 31.26 1.331 11.13 1.97 30.3 30.6
3150.05 31.35 31.55 1.331 11.13 2.04 30.3 30.7
3155.13 31.81 31.75 1.331 11.13 1.96 30.3 30.8
3160.09 31.81 31.75 1.331 11.13 1.93 30.1 30.5
3165.02 31.81 31.89 1.331 11.14 1.86 30.2 30.6
3170.10 32.02 31.97 1.331 11.13 1.86 30.3 30.6
3175.06 32.02 31.97 1.331 11.13 1.81 30.2 30.7
3180.12 32.02 32.15 1.331 11.12 1.83 30.2 30.5
3185.05 32.42 32.38 1.331 11.14 1.82 30.2 30.6
3190.11 32.42 32.38 1.331 11.15 1.78 30.3 30.7
3195.02 32.42 32.56 1.331 11.13 1.81 30.1 30.4
3200.11 32.55 32.65 1.331 11.14 1.77 30.1 30.6
3205.06 32.55 32.65 1.331 11.13 1.78 30.2 30.7
3210.12 32.55 32.72 1.331 11.14 1.73 30.2 30.7
3215.05 32.97 32.86 1.331 11.15 1.70 30.2 30.7
3220.03 32.97 32.86 1.331 11.14 1.73 30.2 30.6
3225.12 32.97 33.03 1.331 11.13 1.75 30.3 30.6
3230.04 33.00 33.03 1.331 11.13 1.79 30.1 30.6
3235.02 33.00 33.03 1.331 11.14 1.67 30.2 30.7
3240.08 33.00 33.06 1.331 11.14 1.65 30.3 30.6
3245.01 33.25 33.19 1.331 11.14 1.72 30.1 30.6
3250.12 33.25 33.19 1.331 11.14 1.67 30.1 30.7
3255.03 33.25 33.27 1.331 11.14 1.65 30.2 30.8
3260.11 33.36 33.22 1.331 11.14 1.62 30.2 30.7
3265.08 33.36 33.22 1.331 11.14 1.69 30.3 30.4
3270.14 33.36 33.41 1.331 11.13 1.69 30.3 30.6
3275.07 33.41 33.54 1.331 11.14 1.65 30.1 30.8
3280.03 33.41 33.54 1.331 11.14 1.62 30.2 30.9
3285.09 33.41 33.51 1.331 11.14 1.56 30.2 30.8
3290.02 33.62 33.49 1.331 11.14 1.60 30.2 30.6
3295.12 33.62 33.49 1.331 11.14 1.59 30.2 30.6
3300.03 33.62 33.59 1.331 11.14 1.60 30.2 30.8
3305.11 33.72 33.76 1.331 11.13 1.59 30.1 30.8
3310.08 33.72 33.76 1.331 11.14 1.60 30.2 30.7
3315.00 33.72 33.76 1.331 11.14 1.56 30.0 30.7
3320.07 33.64 33.66 1.331 11.14 1.58 30.2 30.7
3325.03 33.64 33.66 1.331 11.14 1.63 30.2 30.6
3330.09 33.64 33.70 1.331 11.14 1.62 30.0 30.7
3335.02 33.82 33.84 1.331 11.14 1.61 30.2 30.6
3340.12 33.82 33.84 1.331 11.14 1.61 30.1 30.5
3345.03 33.82 33.82 1.331 11.15 1.59 30.1 30.7
3350.12 33.78 33.80 1.331 11.14 1.63 30.1 30.5
3355.06 33.78 33.80 1.331 11.13 1.62 30.3 30.7
3360.12 33.78 33.90 1.331 11.14 1.58 30.3 30.7
3365.05 33.97 33.98 1.331 11.13 1.55 30.2 30.7
3370.01 33.97 33.98 1.331 11.14 1.55 30.1 30.7
3375.07 33.91 33.92 1.331 11.14 1.64 30.3 30.7
3380.01 33.87 33.88 1.331 11.14 1.57 30.2 30.5
3385.10 33.87 33.88 1.331 11.14 1.56 30.3 30.6
3390.01 33.95 33.95 1.331 11.14 1.56 30.2 30.4
3395.11 34.00 34.00 1.331 11.13 1.55 30.2 30.7
3400.06 34.00 34.00 1.331 11.14 1.57 30.3 30.7
3405.12 34.03 34.04 1.331 11.13 1.49 30.2 30.6
3410.06 34.06 34.06 1.331 11.13 1.56 30.2 30.5
3415.00 34.06 34.06 1.331 11.14 1.52 30.3 30.6
3420.06 34.09 34.09 1.331 11.13 1.55 30.1 30.5
3425.01 34.09 34.09 1.331 11.14 1.55 30.2 30.7
3430.10 34.09 34.09 1.331 11.14 1.53 30.4 30.6
3435.01 34.09 34.10 1.331 11.14 1.58 30.3 30.7
3440.12 34.10 34.10 1.331 11.13 1.48 30.2 30.7
3445.05 34.10 34.10 1.331 11.14 1.52 30.2 30.5
3450.12 34.10 34.10 1.331 11.14 1.55 30.2 30.5
3455.08 34.10 34.10 1.331 11.14 1.57 30.1 30.6
3460.01 34.10 34.10 1.331 11.13 1.54 30.2 30.8
3465.07 34.10 34.10 1.331 11.15 1.48 30.1 30.6
3470.03 34.10 34.10 1.331 11.14 1.49 30.3 30.8
3475.12 34.10 34.10 1.331 11.14 1.57 30.2 30.7
3480.03 34.20 34.08 1.331 11.15 1.56 30.0 30.7
3485.01 34.27 34.08 1.331 11.14 1.52 30.1 30.7
3490.09 34.27 34.08 1.331 11.14 1.56 30.2 30.9
3495.02 34.16 34.26 1.331 11.14 1.54 30.1 30.7
3500.00 34.16 34.26 1.331 11.13 1.50 30.1 30.8
3505.05 34.16 34.26 1.331 11.14 1.55 30.2 30.6
3510.12 34.13 34.17 1.331 11.14 1.55 30.0 30.6
3515.10 34.13 34.17 1.331 11.14 1.54 30.2 30.5
3520.02 34.13 34.26 1.331 11.14 1.57 30.1 30.8
3525.10 34.31 34.33 1.331 11.13 1.52 30.3 30.6
3530.06 34.31 34.33 1.331 11.15 1.48 30.3 30.6
3535.12 34.31 34.25 1.331 11.14 1.51 30.1 30.6
3540.05 34.19 34.20 1.331 11.13 1.54 30.1 30.5
3545.01 34.19 34.20 1.331 11.13 1.53 30.1 30.6
3550.07 34.19 34.17 1.331 11.14 1.55 30.0 30.7
3555.00 34.26 34.26 1.331 11.15 1.47 30.3 30.7
3560.11 34.26 34.26 1.331 11.14 1.52 30.3 30.6
3565.02 34.26 34.32 1.331 11.14 1.51 30.3 30.5
3570.10 34.25 34.27 1.331 11.14 1.47 30.2 30.5
3575.06 34.25 34.27 1.331 11.14 1.51 30.1 30.5
3580.12 34.20 34.21 1.331 11.13 1.57 30.1 30.4
3585.07 34.17 34.17 1.331 11.13 1.58 30.2 30.6
3590.02 34.17 34.17 1.331 11.14 1.58 30.2 30.8
3595.08 34.18 34.27 1.331 11.14 1.53 30.1 30.5
3600.12 34.30 34.36 1.331 11.14 1.55 30.1 30.6
3605.06 34.30 34.36 1.331 11.14 1.47 30.1 30.5
3610.12 34.35 34.32 1.331 11.14 1.47 30.0 30.6
3615.07 34.27 34.25 1.331 11.14 1.51 30.1 30.5
3620.01 34.27 34.25 1.331 11.14 1.56 30.2 30.8
3625.08 34.21 34.28 1.331 11.14 1.48 30.2 30.7
3630.03 34.29 34.28 1.331 11.14 1.44 30.3 30.5
3635.12 34.29 34.28 1.331 11.14 1.47 30.3 30.6
3640.04 34.33 34.25 1.331 11.13 1.51 30.2 30.7
3645.00 34.25 34.25 1.331 11.13 1.65 30.2 30.5
3650.08 34.25 34.25 1.331 11.13 1.56 30.2 30.7
3655.14 34.32 34.28 1.331 11.14 1.56 30.2 30.7
3660.09 34.36 34.28 1.331 11.14 1.58 30.3 30.9
3665.02 34.36 34.28 1.331 11.14 1.54 30.3 30.6
3670.09 34.27 34.26 1.331 11.14 1.54 30.1 30.6
3675.04 34.22 34.26 1.331 11.14 1.50 30.1 30.5
3680.12 34.22 34.26 1.331 11.13 1.54 30.3 30.7
3685.04 34.35 34.37 1.331 11.13 1.52 30.2 30.7
3690.02 34.35 34.37 1.331 11.14 1.53 30.3 30.6
3695.08 34.35 34.28 1.331 11.14 1.53 30.2 30.6
3700.01 34.21 34.22 1.331 11.13 1.45 30.2 30.7
3705.11 34.21 34.22 1.331 11.13 1.50 30.1 30.6
3710.03 34.21 34.30 1.331 11.14 1.54 30.2 30.7
3715.10 34.34 34.35 1.331 11.15 1.53 30.1 30.5
3720.06 34.34 34.35 1.331 11.14 1.49 30.3 30.6
3725.13 34.34 34.36 1.331 11.14 1.45 30.1 30.6
3730.07 34.39 34.38 1.331 11.14 1.48 30.3 30.4
3735.03 34.39 34.38 1.331 11.14 1.51 30.2 30.6
3740.09 34.39 34.28 1.331 11.14 1.55 30.2 30.6
3745.02 34.35 34.22 1.331 11.14 1.54 30.3 30.6
3750.13 34.35 34.22 1.331 11.14 1.51 30.2 30.6
3755.04 34.36 34.28 1.331 11.13 1.56 30.1 30.8
3760.00 34.26 34.32 1.331 11.14 1.57 30.1 30.7
3765.09 34.26 34.32 1.331 11.14 1.52 30.2 30.7
3770.02 34.32 34.36 1.331 11.14 1.53 30.2 30.5
3775.11 34.37 34.39 1.331 11.14 1.51 30.0 30.3
3780.05 34.37 34.39 1.331 11.14 1.52 30.1 30.5
3785.12 34.28 34.30 1.331 11.14 1.50 30.2 30.6
3790.07 34.20 34.23 1.331 11.14 1.48 30.1 30.5
3795.02 34.20 34.23 1.331 11.14 1.52 30.1 30.6
3800.08 34.28 34.35 1.331 11.14 1.50 30.0 30.5
3805.04 34.34 34.35 1.331 11.13 1.51 30.0 30.7
3810.12 34.34 34.35 1.331 11.14 1.52 30.1 30.6
3815.04 34.26 34.21 1.331 11.14 1.49 29.9 30.7
3820.00 34.32 34.21 1.331 11.14 1.53 30.1 30.6
3825.08 34.32 34.21 1.331 11.14 1.55 30.2 30.7
3830.14 34.37 34.34 1.331 11.14 1.58 30.2 30.5
3835.09 34.28 34.34 1.331 11.14 1.55 30.2 30.5
3840.03 34.28 34.34 1.331 11.14 1.50 30.2 30.4
3845.09 34.25 34.40 1.331 11.14 1.49 30.2 30.6
3850.13 34.25 34.40 1.331 11.14 1.47 30.2 30.7
3855.04 34.25 34.40 1.331 11.14 1.49 30.2 30.5
3860.10 34.40 34.35 1.331 11.14 1.58 30.2 30.5
3865.07 34.40 34.35 1.331 11.14 1.51 30.2 30.5
3870.13 34.40 34.28 1.331 11.15 1.50 30.2 30.5
3875.05 34.26 34.24 1.331 11.14 1.42 30.1 30.6
3880.02 34.26 34.24 1.331 11.14 1.50 30.0 30.5
3885.08 34.26 34.31 1.331 11.14 1.50 30.0 30.6
3890.00 34.37 34.36 1.331 11.13 1.53 30.1 30.6
3895.11 34.37 34.36 1.331 11.14 1.51 30.1 30.5
3900.03 34.37 34.27 1.331 11.14 1.47 30.1 30.5
3905.11 34.34 34.21 1.331 11.14 1.47 30.1 30.3
3910.07 34.34 34.21 1.331 11.13 1.57 30.1 30.7
3915.13 34.34 34.29 1.331 11.14 1.53 30.2 30.5
3920.06 34.28 34.34 1.331 11.13 1.48 30.1 30.7
3925.02 34.28 34.34 1.331 11.14 1.47 30.2 30.6
3930.08 34.22 34.28 1.331 11.14 1.46 30.2 30.5
3935.03 34.28 34.22 1.331 11.13 1.47 30.1 30.5
3940.13 34.28 34.22 1.331 11.14 1.54 30.1 30.5
3945.04 34.34 34.28 1.331 11.13 1.53 30.1 30.4
3950.14 34.26 34.34 1.331 11.14 1.55 30.1 30.7
3955.08 34.26 34.34 1.331 11.14 1.56 30.2 30.6
3960.00 34.21 34.37 1.331 11.15 1.52 30.1 30.6
3965.09 34.29 34.28 1.331 11.13 1.55 30.1 30.7
3970.04 34.29 34.28 1.331 11.14 1.55 30.2 30.6
3975.12 34.32 34.27 1.331 11.14 1.57 30.1 30.6
3980.09 34.35 34.27 1.331 11.14 1.52 30.1 30.4
3985.02 34.35 34.27 1.331 11.14 1.56 30.2 30.5
3990.07 34.38 34.37 1.331 11.13 1.50 30.2 30.4
3995.04 34.29 34.37 1.331 11.14 1.50 30.1 30.4
4000.12 34.29 34.37 1.331 11.14 1.46 30.0 30.4
4005.04 34.33 34.39 1.410 11.13 1.46 30.2 30.5
4010.02 34.35 34.39 1.410 11.03 3.87 29.9 30.2
4015.09 34.35 34.39 1.410 11.03 4.63 29.8 30.5
4020.02 34.49 34.39 1.410 11.05 4.68 29.9 30.2
4025.00 34.49 34.39 1.410 11.06 4.61 30.0 30.5
4030.06 34.49 34.76 1.410 11.06 4.53 29.9 30.5
4035.13 35.19 35.14 1.410 11.06 4.49 29.9 30.5
4040.09 35.19 35.14 1.410 11.06 4.23 30.0 30.5
4045.02 35.67 35.51 1.410 11.05 3.97 30.0 30.5
4050.11 36.00 35.76 1.410 11.08 4.19 29.9 30.5
4055.05 36.00 35.76 1.410 11.07 4.20 29.9 30.3
4060.12 36.33 36.67 1.410 11.08 4.14 29.9 30.5
4065.08 36.69 36.67 1.410 11.07 3.88 30.1 30.3
4070.02 36.69 37.06 1.410 11.09 4.01 30.0 30.5
4075.09 37.33 37.33 1.410 11.09 3.92 29.9 30.6
4080.05 37.33 37.33 1.410 11.08 3.77 29.9 30.6
4085.11 37.79 37.63 1.410 11.09 3.74 29.9 30.4
4090.05 38.09 37.99 1.410 11.09 3.70 29.9 30.5
4095.00 38.09 37.99 1.410 11.09 3.65 29.9 30.4
4100.11 38.57 38.52 1.410 11.10 3.54 30.1 30.6
4105.09 38.57 38.52 1.410 11.09 3.49 30.1 30.4
4110.02 38.57 38.72 1.410 11.10 3.45 29.8 30.5
4115.10 39.01 38.99 1.410 11.09 3.42 30.0 30.5
4120.06 39.01 38.99 1.410 11.10 3.40 30.0 30.3
4125.11 39.34 39.33 1.410 11.09 3.41 30.0 30.6
4130.08 39.34 39.33 1.410 11.11 3.35 30.1 30.6
4135.00 39.34 39.57 1.410 11.09 3.26 30.0 30.4
4140.07 39.83 39.73 1.410 11.10 3.17 30.1 30.5
4145.03 39.83 39.73 1.410 11.09 3.22 29.9 30.6
4150.09 39.95 40.02 1.410 11.10 3.12 30.0 30.4
4155.06 39.95 40.02 1.410 11.11 3.27 30.0 30.4
4160.12 40.15 40.20 1.410 11.10 3.06 30.0 30.4
4165.06 40.29 40.31 1.410 11.09 3.04 30.0 30.6
4170.02 40.29 40.31 1.410 11.11 3.14 30.1 30.3
4175.08 40.57 40.58 1.410 11.11 3.13 30.0 30.6
4180.03 40.57 40.58 1.410 11.10 2.94 29.9 30.3
4185.09 40.73 40.59 1.410 11.10 3.00 30.0 30.2
4190.04 40.84 40.73 1.410 11.10 2.93 30.0 30.5
4195.12 40.84 40.73 1.410 11.10 2.85 30.0 30.5
4200.03 40.93 40.89 1.410 11.10 2.97 29.9 30.4
4205.01 40.93 40.89 1.410 11.09 3.00 30.0 30.4
4210.07 40.97 41.08 1.410 11.11 2.97 30.0 30.5
4215.02 40.98 41.08 1.410 11.10 2.95 29.9 30.3
4220.09 40.98 41.12 1.410 11.11 2.90 29.9 30.4
4225.12 41.20 41.13 1.410 11.11 2.81 30.2 30.3
4230.09 41.20 41.13 1.410 11.11 2.87 30.1 30.4
4235.02 41.26 41.28 1.410 11.11 2.93 30.1 30.4
4240.13 41.31 41.28 1.410 11.10 2.88 29.9 30.4
4245.06 41.31 41.35 1.410 11.10 2.89 30.0 30.1
4250.12 41.35 41.42 1.410 11.11 2.85 30.0 30.4
4255.07 41.35 41.42 1.410 11.10 2.70 29.9 30.5
4260.13 41.55 41.48 1.410 11.11 2.77 30.0 30.5
4265.10 41.55 41.48 1.410 11.11 2.80 30.0 30.5
4270.02 41.54 41.47 1.410 11.11 2.82 29.9 30.6
4275.11 41.67 41.46 1.410 11.11 2.93 30.1 30.4
4280.05 41.67 41.64 1.410 11.11 2.72 30.0 30.6
4285.13 41.58 41.76 1.410 11.11 2.86 30.1 30.3
4290.08 41.58 41.76 1.410 11.10 2.68 29.9 30.3
4295.14 41.57 41.64 1.410 11.10 2.78 30.1 30.3
4300.09 41.55 41.64 1.410 11.11 2.78 30.0 30.4
4305.02 41.55 41.60 1.410 11.11 2.82 30.1 30.4
4310.09 41.83 41.75 1.410 11.11 2.80 30.1 30.4
4315.04 41.83 41.75 1.410 11.10 2.77 29.9 30.6
4320.10 41.76 41.72 1.410 11.11 2.71 30.1 30.4
4325.06 41.76 41.72 1.410 11.10 2.79 29.9 30.3
4330.13 41.67 41.90 1.410 11.11 2.74 30.0 30.2
4335.08 41.80 41.90 1.410 11.10 2.70 29.9 30.1
4340.02 41.80 41.75 1.410 11.11 2.79 29.9 30.3
4345.10 41.88 41.82 1.410 11.11 2.76 30.0 30.2
4350.11 41.88 41.82 1.410 11.12 2.85 29.9 30.3
4355.03 42.02 41.92 1.410 11.12 2.83 29.9 30.3
4360.00 41.95 41.92 1.410 11.11 2.75 30.2 30.3
4365.06 41.80 41.78 1.410 11.11 2.71 30.1 30.3
4370.00 41.88 41.87 1.410 11.11 2.67 30.0 30.2
4375.10 41.88 41.87 1.410 11.11 2.80 30.0 30.4
4380.02 41.92 41.91 1.410 11.11 2.78 30.0 30.4
4385.01 41.92 41.91 1.410 11.11 2.66 30.0 30.5
4390.06 41.95 41.98 1.410 11.12 2.74 30.1 30.3
4395.00 42.00 41.98 1.410 11.11 2.74 29.9 30.2
4400.06 42.00 42.02 1.410 11.13 2.72 30.0 30.6
4405.14 42.01 42.03 1.410 11.11 2.76 29.9 30.3
4410.09 42.01 42.03 1.410 11.11 2.70 30.0 30.3
4415.02 42.03 41.88 1.410 11.11 2.64 30.1 30.6
4420.11 42.03 41.88 1.410 11.11 2.65 30.0 30.6
4425.03 42.04 41.94 1.410 11.12 2.72 30.1 30.4
4430.12 42.03 41.96 1.410 11.12 2.79 30.0 30.3
4435.05 42.03 41.97 1.410 11.10 2.73 30.0 30.4
4440.14 41.84 41.98 1.410 11.10 2.69 30.1 30.0
4445.08 41.84 41.98 1.410 11.11 2.68 29.9 30.3
4450.00 41.90 42.00 1.410 11.11 2.71 29.8 30.4
4455.10 42.11 42.00 1.410 11.11 2.72 29.8 30.2
4460.03 42.11 42.02 1.410 11.10 2.74 29.9 30.4
4465.10 42.07 42.01 1.410 11.11 2.78 29.9 30.3
4470.03 42.07 42.01 1.410 11.11 2.76 30.2 30.2
4475.12 42.03 42.01 1.410 11.10 2.79 30.0 30.2
4480.08 42.03 42.01 1.410 11.11 2.70 30.0 30.2
4485.00 42.02 42.00 1.410 11.10 2.70 29.9 30.2
4490.10 42.01 42.00 1.410 11.10 2.70 30.0 30.3
4495.02 42.01 42.00 1.410 11.11 2.74 30.0 30.1
4500.09 42.03 42.00 1.410 11.12 2.71 30.1 30.1
4505.05 42.03 42.00 1.410 11.11 2.70 30.0 30.4
4510.12 41.99 41.97 1.410 11.10 2.69 29.9 30.3
4515.11 41.99 41.97 1.410 11.11 2.70 29.9 30.1
4520.02 42.16 42.15 1.410 11.10 2.69 30.0 30.3
4525.10 42.11 42.28 1.410 11.11 2.66 29.9 30.2
4530.04 42.11 42.28 1.410 11.11 2.61 29.9 30.2
4535.10 41.95 42.15 1.410 11.11 2.69 30.0 30.4
4540.07 41.95 42.15 1.410 11.12 2.66 30.0 30.2
4545.12 42.15 42.10 1.410 11.12 2.74 29.8 30.1
4550.08 42.28 42.10 1.410 11.12 2.75 29.9 30.1
4555.02 42.28 42.06 1.410 11.11 2.72 29.9 30.1
4560.09 42.14 42.04 1.410 11.12 2.81 30.0 30.1
4565.04 42.14 42.04 1.410 11.11 2.74 30.0 30.2
4570.10 42.08 42.02 1.410 11.11 2.77 30.0 30.4
4575.06 42.08 42.02 1.410 11.11 2.71 29.9 30.4
4580.13 42.05 42.01 1.410 11.11 2.66 29.9 30.1
4585.07 42.05 42.01 1.410 11.11 2.68 29.8 30.2
4590.02 42.05 42.17 1.410 11.12 2.73 29.9 30.0
4595.09 42.02 42.28 1.410 11.10 2.71 30.0 30.2
4600.10 42.02 42.28 1.410 11.11 2.67 30.0 30.5
4605.02 42.16 42.00 1.410 11.12 2.69 29.9 30.1
4610.13 42.16 42.00 1.410 11.11 2.67 30.0 30.2
4615.05 42.09 42.00 1.410 11.11 2.73 30.0 30.4
4620.01 42.04 42.15 1.410 11.11 2.63 30.2 30.3
4625.10 42.04 42.15 1.410 11.11 2.67 30.0 30.4
4630.02 41.99 42.15 1.410 11.11 2.65 30.1 30.2
4635.00 41.99 42.15 1.410 11.11 2.68 30.1 30.1
4640.06 42.18 42.05 1.410 11.10 2.68 29.9 30.3
4645.03 42.29 42.05 1.410 11.12 2.75 29.8 30.2
4650.10 42.29 42.02 1.410 11.11 2.75 29.9 30.2
4655.03 42.10 41.99 1.410 11.12 2.67 30.1 30.0
4660.02 42.10 41.99 1.410 11.12 2.69 30.0 30.1
4665.08 42.01 42.25 1.410 11.10 2.67 30.0 30.1
4670.05 42.01 42.25 1.410 11.10 2.69 29.9 30.3
4675.12 42.17 42.16 1.410 11.11 2.70 29.9 30.3
4680.05 42.13 42.13 1.410 11.12 2.68 30.0 30.2
4685.14 42.13 42.10 1.410 11.11 2.73 29.8 30.1
4690.07 42.24 42.07 1.410 11.11 2.78 30.1 30.1
4695.02 42.24 42.07 1.410 11.11 2.69 30.0 30.1
4700.08 42.16 42.03 1.410 11.10 2.68 29.9 29.9
4705.03 42.11 42.03 1.410 11.12 2.68 29.8 30.1
4710.10 42.07 42.04 1.410 11.11 2.62 29.9 30.2
4715.04 42.05 42.19 1.410 11.11 2.63 29.9 30.2
4720.13 42.05 42.19 1.410 11.11 2.68 29.8 30.2
4725.11 42.05 42.08 1.410 11.10 2.74 29.9 30.1
4730.08 42.05 42.08 1.410 11.10 2.67 30.0 30.1
4735.00 42.20 42.20 1.410 11.11 2.70 30.0 30.0
4740.10 42.13 42.20 1.410 11.11 2.64 29.9 30.2
4745.02 42.13 42.15 1.410 11.11 2.66 30.0 30.2
4750.09 42.07 42.12 1.410 11.11 2.62 29.9 30.2
4755.05 42.07 42.12 1.410 11.11 2.62 29.8 30.1
4760.12 42.05 42.07 1.410 11.12 2.74 29.8 30.0
4765.08 42.05 42.07 1.410 11.11 2.71 29.9 30.0
4770.00 42.03 42.05 1.410 11.10 2.73 30.0 30.1
4775.08 42.20 42.03 1.410 11.11 2.70 30.0 30.1
4780.02 42.20 42.22 1.410 11.10 2.71 29.9 30.0
4785.08 42.23 42.15 1.410 11.11 2.73 30.0 30.3
4790.04 42.23 42.15 1.410 11.10 2.63 29.8 30.2
4795.11 42.15 42.23 1.410 11.11 2.73 29.9 30.1
4800.05 42.12 42.23 1.410 11.10 2.61 29.9 30.3
4805.13 42.08 42.17 1.410 11.10 2.66 29.8 30.2
4810.07 42.05 42.11 1.410 11.11 2.63 30.2 30.0
4815.02 42.05 42.11 1.410 11.11 2.67 29.9 30.2
4820.07 42.02 42.05 1.410 11.11 2.68 29.9 30.2
4825.03 42.02 42.05 1.410 11.12 2.78 30.0 30.2
4830.09 42.02 42.05 1.410 11.10 2.72 29.9 30.1
4835.03 42.04 42.05 1.410 11.11 2.75 30.1 30.1
4840.09 42.04 42.08 1.410 11.10 2.74 30.0 30.0
4845.02 42.23 42.09 1.410 11.11 2.72 30.0 29.9
4850.13 42.23 42.09 1.410 11.11 2.69 29.9 30.2
4855.05 42.18 42.31 1.410 11.11 2.72 30.1 30.1
4860.03 42.18 42.31 1.410 11.11 2.65 29.9 30.1
4865.09 42.12 42.20 1.410 11.10 2.64 30.0 29.9
4870.02 42.10 42.14 1.410 11.11 2.69 30.0 30.0
4875.11 42.10 42.11 1.410 11.11 2.66 30.0 30.0
4880.04 42.05 42.07 1.410 11.11 2.66 29.8 30.1
4885.13 42.05 42.07 1.410 11.11 2.68 29.9 30.0
4890.05 42.04 42.03 1.410 11.10 2.65 30.0 30.1
4895.01 42.19 42.03 1.410 11.11 2.74 30.0 30.4
4900.08 42.31 42.20 1.410 11.10 2.69 30.0 30.1
4905.02 42.21 42.15 1.410 11.12 2.76 29.9 30.0
4910.10 42.21 42.15 1.410 11.11 2.75 30.2 29.9
4915.02 42.10 42.08 1.410 11.11 2.64 29.9 30.0
4920.13 42.10 42.08 1.410 11.10 2.68 30.0 29.9
4925.04 42.05 42.16 1.410 11.11 2.75 29.9 30.1
4930.03 42.17 42.16 1.410 11.11 2.69 30.0 29.9
4935.12 42.17 42.26 1.410 11.11 2.69 30.0 30.0
4940.05 42.16 42.15 1.410 11.11 2.65 29.9 29.9
4945.02 42.16 42.15 1.410 11.12 2.71 29.8 29.9
4950.07 42.06 42.22 1.410 11.11 2.67 30.0 30.0
4955.04 42.06 42.22 1.410 11.10 2.74 29.9 30.1
4960.09 42.06 42.17 1.410 11.12 2.66 29.9 30.1
4965.04 42.04 42.13 1.410 11.11 2.74 30.0 30.1
4970.13 42.04 42.18 1.410 11.12 2.65 29.9 30.0
4975.12 42.18 42.22 1.410 11.10 2.61 29.9 30.0
4980.08 42.18 42.22 1.410 11.12 2.73 29.9 29.8
4985.00 42.12 42.09 1.410 11.12 2.69 30.0 29.9
4990.10 42.08 42.09 1.410 11.11 2.75 30.0 30.0
4995.02 42.07 42.08 1.410 11.11 2.75 30.0 29.9
5000.11 42.21 42.07 1.410 11.11 2.75 30.0 29.9
5005.04 42.21 42.07 1.488 11.11 2.64 30.0 29.9
5010.10 42.22 42.18 1.488 11.03 5.47 29.9 30.2
5015.07 42.22 42.18 1.488 11.01 6.15 30.0 29.9
5020.14 42.33 42.37 1.488 11.02 6.36 30.0 30.0
5025.09 42.40 42.37 1.488 11.05 6.49 29.7 29.9
5030.02 42.62 42.62 1.488 11.05 6.03 30.0 30.0
5035.11 42.95 42.94 1.488 10.99 5.71 29.8 29.8
5040.05 42.95 43.35 1.488 11.04 5.83 29.9 30.0
5045.13 43.61 43.61 1.488 11.05 5.81 29.9 29.8
5050.09 43.61 43.61 1.488 11.04 5.80 29.8 29.9
5055.02 44.19 44.07 1.488 11.04 5.64 29.8 30.1
5060.00 44.19 44.07 1.488 11.04 5.67 29.8 30.0
5065.05 44.54 44.74 1.488 11.05 5.53 29.8 30.1
5070.02 44.80 44.74 1.488 11.05 5.40 29.8 29.8
5075.09 44.96 44.93 1.488 11.02 5.36 29.8 29.9
5080.04 45.08 45.05 1.488 11.05 5.18 29.8 29.9
5085.14 45.08 45.53 1.488 11.05 5.14 29.8 29.8
5090.06 45.68 45.86 1.488 11.03 5.27 29.7 30.0
5095.02 45.68 45.86 1.488 11.03 5.16 29.9 30.0
5100.11 45.73 46.01 1.488 11.03 5.09 29.9 30.0
5105.08 45.73 46.01 1.488 11.03 4.97 29.8 29.7
5110.00 46.54 46.30 1.488 11.05 4.99 29.8 30.1
5115.11 46.54 46.30 1.488 11.05 5.02 29.8 29.8
5120.03 46.53 46.57 1.488 11.04 4.99 29.8 29.8
5125.00 46.53 46.57 1.488 11.05 4.99 29.8 29.9
5130.05 46.74 47.09 1.488 11.06 4.96 29.9 30.0
5135.03 46.86 47.09 1.488 11.07 4.90 29.9 30.0
5140.12 47.14 47.21 1.488 11.05 4.80 29.9 29.9
5145.08 47.34 47.21 1.488 11.05 4.95 29.9 29.9
5150.02 47.48 47.41 1.488 11.08 4.87 29.8 29.8
5155.11 47.57 47.32 1.488 11.04 4.85 29.8 30.0
5160.05 47.66 47.28 1.488 11.05 4.79 29.9 30.2
5165.13 47.73 47.69 1.488 11.05 4.76 29.9 30.2
5170.08 47.73 47.94 1.488 11.08 4.83 29.9 30.1
5175.01 47.77 47.89 1.488 11.07 4.76 29.9 29.8
5180.12 47.77 47.86 1.488 11.05 4.77 30.0 29.9
5185.05 48.17 48.08 1.488 11.06 4.72 29.9 29.9
5190.00 48.17 48.23 1.488 11.07 4.63 29.9 29.6
5195.07 48.19 48.09 1.488 11.07 4.66 29.9 30.0
5200.03 48.19 48.09 1.488 11.06 4.71 30.0 29.7
5205.09 48.38 48.32 1.488 11.06 4.67 29.9 30.0
5210.05 48.38 48.32 1.488 11.06 4.68 29.8 30.0
5215.12 48.40 48.61 1.488 11.05 4.55 29.8 29.8
5220.11 48.40 48.61 1.488 11.06 4.40 29.7 29.7
5225.11 48.60 48.47 1.488 11.06 4.63 29.9 29.9
5230.08 48.60 48.47 1.488 11.06 4.59 29.8 29.9
5235.14 48.69 48.48 1.488 11.07 4.53 30.0 29.8
5240.10 48.69 48.48 1.488 11.07 4.46 29.8 29.7
5245.02 48.80 48.88 1.488 11.08 4.51 29.8 29.8
5250.00 48.80 48.88 1.488 11.06 4.48 29.9 29.9
5255.06 48.99 48.87 1.488 11.07 4.55 29.9 29.7
5260.03 48.99 48.87 1.488 11.09 4.54 30.0 29.9
5265.09 48.72 48.68 1.488 11.06 4.51 29.8 29.6
5270.05 48.72 48.68 1.488 11.05 4.54 29.9 29.7
5275.12 48.86 48.94 1.488 11.06 4.45 30.0 29.9
5280.08 48.94 48.94 1.488 11.07 4.48 29.9 29.8
5285.02 49.01 49.03 1.488 11.06 4.53 29.9 29.7
5290.13 49.04 49.03 1.488 11.06 4.54 29.9 29.8
5295.06 49.08 48.85 1.488 11.08 4.45 29.7 29.9
5300.03 49.10 48.85 1.488 11.07 4.42 29.8 29.8
5305.12 49.07 49.21 1.488 11.06 4.48 29.8 30.0
5310.08 49.08 49.21 1.488 11.06 4.42 29.8 29.9
5315.02 49.10 49.18 1.488 11.08 4.49 29.9 29.8
5320.12 49.12 49.18 1.488 11.07 4.52 29.8 29.9
5325.05 49.13 49.16 1.488 11.07 4.52 29.8 29.9
5330.02 49.14 49.16 1.488 11.08 4.55 29.9 29.8
5335.10 49.36 49.53 1.488 11.07 4.47 30.0 29.8
5340.06 49.52 49.53 1.488 11.07 4.36 29.7 30.0
5345.00 49.33 49.41 1.488 11.07 4.41 30.0 29.7
5350.13 49.20 49.25 1.488 11.06 4.47 29.9 29.8
5355.07 49.17 49.15 1.488 11.08 4.39 29.8 29.8
5360.03 49.13 49.38 1.488 11.08 4.38 29.9 29.8
5365.14 49.37 49.51 1.488 11.07 4.41 29.9 29.8
5370.08 49.53 49.37 1.488 11.07 4.32 29.9 29.9
5375.02 49.40 49.30 1.488 11.08 4.37 29.7 29.7
5380.12 49.32 49.25 1.488 11.06 4.33 29.8 29.7
5385.06 49.26 49.22 1.488 11.06 4.39 29.9 29.9
5390.01 49.23 49.21 1.488 11.07 4.48 29.9 29.7
5395.10 49.43 49.42 1.488 11.08 4.41 29.8 29.8
5400.05 49.57 49.57 1.488 11.07 4.26 29.8 29.8
5405.00 49.57 49.43 1.488 11.07 4.38 29.9 29.8
5410.07 49.34 49.35 1.488 11.07 4.36 29.9 29.9
5415.03 49.34 49.30 1.488 11.06 4.43 29.9 29.7
5420.11 49.64 49.48 1.488 11.06 4.47 29.9 29.8
5425.06 49.64 49.62 1.488 11.06 4.44 29.7 29.8
5430.14 49.37 49.47 1.488 11.06 4.39 29.8 29.8
5435.11 49.37 49.34 1.488 11.07 4.26 29.8 29.8
5440.04 49.48 49.26 1.488 11.08 4.34 29.9 29.8
5445.02 49.48 49.42 1.488 11.07 4.49 29.7 29.8
5450.09 49.29 49.57 1.488 11.06 4.31 29.6 29.8
5455.05 49.29 49.41 1.488 11.06 4.39 29.9 29.8
5460.13 49.59 49.56 1.488 11.07 4.32 29.9 29.9
5465.10 49.59 49.65 1.488 11.07 4.36 29.7 29.8
5470.03 49.31 49.47 1.488 11.08 4.42 29.8 29.8
5475.10 49.31 49.41 1.488 11.07 4.28 29.8 29.9
5480.04 49.71 49.39 1.488 11.06 4.30 29.8 29.9
5485.02 49.71 49.53 1.488 11.07 4.48 29.9 29.8
5490.09 49.36 49.62 1.488 11.08 4.31 30.0 29.8
5495.06 49.36 49.62 1.488 11.07 4.31 29.8 29.7
5500.12 49.66 49.38 1.488 11.07 4.27 30.0 29.8
5505.08 49.66 49.38 1.488 11.06 4.37 29.9 29.8
5510.00 49.39 49.67 1.488 11.07 4.34 29.8 30.1
5515.13 49.39 49.67 1.488 11.07 4.31 29.8 29.9
5520.04 49.66 49.38 1.488 11.07 4.37 29.9 29.9
5525.01 49.66 49.38 1.488 11.07 4.39 29.8 29.8
5530.07 49.41 49.67 1.488 11.07 4.37 29.8 29.8
5535.04 49.41 49.67 1.488 11.06 4.40 29.8 29.7
5540.12 49.62 49.59 1.488 11.08 4.39 29.9 29.8
5545.10 49.62 49.59 1.488 11.09 4.31 29.9 30.0
5550.02 49.36 49.50 1.488 11.07 4.48 29.9 30.0
5555.00 49.36 49.50 1.488 11.06 4.33 29.9 29.8
5560.05 49.41 49.69 1.488 11.06 4.29 29.9 29.9
5565.03 49.41 49.69 1.488 11.07 4.28 29.8 29.7
5570.09 49.92 49.39 1.488 11.06 4.38 29.8 29.8
5575.06 49.92 49.39 1.488 11.06 4.32 29.9 29.8
5580.12 49.53 49.70 1.488 11.08 4.33 29.8 29.8
5585.08 49.53 49.70 1.488 11.07 4.37 29.7 30.0
5590.00 49.73 49.41 1.488 11.06 4.32 29.8 29.9
5595.12 49.73 49.41 1.488 11.07 4.23 29.9 29.8
5600.11 49.60 49.49 1.488 11.07 4.36 29.8 29.7
5605.08 49.60 49.49 1.488 11.07 4.31 29.8 29.8
5610.00 49.35 49.70 1.488 11.07 4.52 29.8 29.8
5615.12 49.35 49.70 1.488 11.08 4.21 29.9 30.0
5620.04 49.62 49.41 1.488 11.07 4.27 29.7 29.8
5625.03 49.62 49.41 1.488 11.09 4.46 29.8 30.0
5630.09 49.37 49.63 1.488 11.08 4.32 29.9 29.8
5635.06 49.37 49.63 1.488 11.07 4.35 29.9 29.8
5640.12 49.66 49.62 1.488 11.08 4.31 29.9 29.6
5645.09 49.66 49.62 1.488 11.06 4.38 29.9 29.7
5650.01 49.38 49.52 1.488 11.08 4.29 29.9 29.7
5655.14 49.38 49.52 1.488 11.09 4.32 29.8 29.9
5660.05 49.64 49.68 1.488 11.06 4.38 29.9 29.8
5665.04 49.64 49.68 1.488 11.06 4.26 29.8 29.8
5670.09 49.78 49.40 1.488 11.06 4.30 29.8 29.8
5675.07 49.78 49.40 1.488 11.07 4.44 29.8 30.0
5680.13 49.43 49.65 1.488 11.07 4.38 29.7 29.8
5685.11 49.43 49.65 1.488 11.08 4.32 29.8 29.8
5690.03 49.66 49.37 1.488 11.07 4.40 29.8 29.8
5695.15 49.66 49.37 1.488 11.06 4.29 29.9 29.7
5700.07 49.49 49.64 1.488 11.07 4.47 29.8 29.9
5705.03 49.38 49.64 1.488 11.09 4.35 29.9 29.7
5710.11 49.54 49.37 1.488 11.08 4.37 29.8 29.7
5715.07 49.64 49.37 1.488 11.08 4.40 29.8 29.7
5720.01 49.69 49.57 1.488 11.07 4.34 29.9 30.0
5725.14 49.71 49.57 1.488 11.07 4.44 29.8 29.8
5730.06 49.51 49.72 1.488 11.07 4.32 29.7 29.7
5735.03 49.39 49.72 1.488 11.06 4.38 29.7 29.9
5740.10 49.56 49.42 1.488 11.08 4.34 29.8 29.8
5745.06 49.67 49.42 1.488 11.08 4.39 29.8 29.8
5750.14 49.50 49.69 1.488 11.07 4.39 29.9 29.8
5755.09 49.40 49.69 1.488 11.08 4.33 29.8 29.8
5760.03 49.57 49.79 1.488 11.07 4.31 29.6 29.9
5765.13 49.66 49.79 1.488 11.08 4.27 29.7 29.9
5770.06 49.72 49.43 1.488 11.08 4.44 29.9 29.9
5775.03 49.53 49.43 1.488 11.07 4.38 29.9 29.7
5780.10 49.41 49.66 1.488 11.09 4.40 29.8 29.7
5785.07 49.55 49.66 1.488 11.08 4.41 29.9 29.7
5790.00 49.67 49.38 1.488 11.08 4.24 29.8 29.9
5795.10 49.50 49.38 1.488 11.05 4.37 29.9 29.9
5800.04 49.38 49.64 1.488 11.06 4.38 29.8 29.9
5805.14 49.54 49.64 1.488 11.09 4.29 29.8 29.8
5810.07 49.62 49.48 1.488 11.07 4.34 29.9 29.8
5815.03 49.68 49.35 1.488 11.09 4.33 29.8 29.8
5820.13 49.74 49.50 1.488 11.07 4.30 29.8 29.6
5825.07 49.54 49.62 1.488 11.06 4.23 29.7 29.7
5830.02 49.40 49.69 1.488 11.06 4.37 29.9 29.8
5835.11 49.55 49.75 1.488 11.09 4.44 29.8 29.8
5840.05 49.65 49.55 1.488 11.08 4.37 29.9 30.1
5845.01 49.47 49.42 1.488 11.07 4.26 29.8 29.8
5850.12 49.34 49.53 1.488 11.08 4.41 29.8 29.6
5855.07 49.51 49.62 1.488 11.07 4.27 29.8 29.8
5860.01 49.62 49.46 1.488 11.07 4.45 29.8 29.8
5865.10 49.70 49.36 1.488 11.08 4.51 29.8 29.8
5870.05 49.73 49.52 1.488 11.08 4.37 29.8 29.8
5875.01 49.54 49.61 1.488 11.07 4.32 29.7 29.9
5880.09 49.54 49.69 1.488 11.08 4.35 29.9 29.6
5885.03 49.56 49.51 1.488 11.07 4.27 30.0 29.6
5890.00 49.56 49.39 1.488 11.07 4.42 29.7 29.8
5895.07 49.47 49.54 1.488 11.07 4.35 29.8 29.9
5900.04 49.47 49.65 1.488 11.07 4.38 29.6 30.0
5905.11 49.53 49.71 1.488 11.07 4.41 29.8 29.8
5910.08 49.53 49.53 1.488 11.09 4.34 29.8 29.9
5915.01 49.47 49.40 1.488 11.08 4.37 29.8 29.7
5920.11 49.47 49.57 1.488 11.07 4.32 29.7 29.8
5925.04 49.54 49.68 1.488 11.07 4.41 29.8 29.9
5930.02 49.54 49.49 1.488 11.07 4.24 29.7 29.6
5935.09 49.71 49.37 1.488 11.06 4.31 29.7 29.9
5940.04 49.71 49.53 1.488 11.07 4.50 29.6 29.7
5945.13 49.54 49.64 1.488 11.07 4.29 29.8 29.7
5950.09 49.54 49.69 1.488 11.05 4.28 29.9 29.7
5955.03 49.56 49.51 1.488 11.08 4.29 29.8 29.9
5960.14 49.56 49.41 1.488 11.08 4.36 29.9 29.9
5965.06 49.50 49.57 1.488 11.07 4.28 29.7 29.9
5970.03 49.50 49.61 1.488 11.09 4.42 29.8 29.9
5975.13 49.49 49.66 1.488 11.06 4.37 29.9 29.8
5980.09 49.49 49.66 1.488 11.07 4.41 29.7 29.8
5985.02 49.64 49.32 1.488 11.08 4.36 29.8 29.7
5990.00 49.64 49.32 1.488 11.08 4.45 29.7 29.7
5995.05 49.37 49.63 1.488 11.08 4.43 29.6 29.8
6000.03 49.37 49.63 1.488 11.06 4.25 29.7 29.9
6005.09 49.65 49.53 1.566 11.06 4.39 29.9 29.7
6010.06 49.65 49.53 1.566 10.97 7.53 29.9 29.6
6015.13 49.77 49.55 1.566 10.97 8.48 29.8 29.8
6020.11 49.77 49.55 1.566 10.94 8.33 29.7 29.6
6025.02 49.82 50.13 1.566 10.97 8.46 29.8 29.6
6030.00 49.82 50.13 1.566 10.96 8.31 29.8 30.0
6035.06 50.25 50.41 1.566 10.97 8.17 29.7 29.8
6040.03 50.25 50.72 1.566 10.96 8.10 29.8 30.0
6045.10 51.11 50.93 1.566 10.99 7.98 29.8 29.7
6050.07 51.11 51.05 1.566 10.99 7.88 29.8 29.8
6055.00 51.42 51.17 1.566 10.99 7.90 29.8 29.7
6060.11 51.42 51.50 1.566 11.00 7.52 29.8 29.8
6065.04 52.07 51.96 1.566 10.97 7.44 29.8 29.8
6070.02 52.33 52.26 1.566 11.03 7.95 29.8 29.7
6075.11 52.23 52.46 1.566 11.01 7.85 29.6 29.6
6080.05 52.44 52.70 1.566 10.99 7.83 29.7 30.0
6085.02 52.86 52.70 1.566 11.01 7.58 29.7 30.1
6090.10 52.89 52.81 1.566 10.99 7.05 29.6 29.8
6095.06 52.91 52.81 1.566 11.00 7.44 29.8 29.8
6100.14 53.39 53.36 1.566 11.03 7.46 29.7 29.8
6105.10 53.39 53.36 1.566 11.00 7.17 29.7 30.0
6110.02 53.59 53.59 1.566 11.00 6.84 29.7 29.8
6115.14 53.59 53.59 1.566 10.99 7.50 29.8 29.9
6120.05 54.15 53.98 1.566 10.98 7.19 29.8 29.8
6125.03 54.15 54.18 1.566 10.97 7.05 29.7 29.8
6130.10 53.95 54.04 1.566 10.98 6.49 29.7 29.7
6135.06 54.15 54.23 1.566 11.03 7.12 29.8 29.8
6140.01 54.28 54.33 1.566 11.00 6.53 29.7 29.6
6145.11 54.37 54.47 1.566 11.00 6.52 29.7 29.9
6150.07 54.73 54.47 1.566 10.97 6.83 29.7 29.8
6155.02 54.79 54.96 1.566 10.96 6.92 29.6 29.7
6160.14 54.79 54.96 1.566 11.04 7.16 29.8 29.9
6165.05 54.40 54.76 1.566 11.02 6.58 29.7 29.8
6170.02 54.40 54.76 1.566 10.99 6.20 29.7 29.9
6175.09 55.33 54.97 1.566 11.06 7.35 29.7 29.9
6180.05 55.33 55.15 1.566 11.03 6.69 29.8 29.9
6185.13 55.19 54.95 1.566 10.99 6.98 29.6 29.7
6190.10 55.28 55.12 1.566 11.07 7.14 29.7 29.7
6195.04 55.35 55.24 1.566 10.99 6.90 29.7 29.8
6200.13 55.42 55.39 1.566 11.00 6.77 29.9 29.6
6205.09 55.45 55.39 1.566 10.99 6.76 29.8 29.7
6210.01 55.48 55.44 1.566 11.00 6.69 29.7 29.8
6215.13 55.48 55.44 1.566 11.04 7.18 29.7 29.8
6220.04 55.49 55.48 1.566 10.99 6.62 29.6 29.7
6225.10 55.49 55.59 1.566 11.01 6.78 29.6 29.7
6230.04 55.65 55.64 1.566 11.01 6.77 29.6 29.8
6235.00 55.60 55.58 1.566 11.01 6.33 29.8 29.8
6240.09 55.53 55.85 1.566 11.03 6.53 29.8 29.9
6245.03 55.82 55.84 1.566 11.04 6.94 29.8 29.8
6250.00 55.71 55.84 1.566 10.98 6.53 29.9 29.8
6255.06 55.92 55.67 1.566 11.00 6.60 29.9 29.9
6260.04 55.92 55.67 1.566 11.01 6.44 29.7 29.8
6265.10 55.86 55.85 1.566 11.03 6.55 29.8 29.9
6270.08 55.86 56.01 1.566 10.98 6.50 29.8 30.0
6275.01 55.95 55.83 1.566 11.01 6.64 29.8 29.8
6280.12 56.10 56.15 1.566 11.00 6.62 29.8 29.7
6285.07 55.90 56.15 1.566 10.98 6.58 29.6 29.7
6290.00 55.98 55.81 1.566 10.99 6.62 29.6 29.8
6295.11 55.98 55.81 1.566 10.98 6.38 29.7 29.8
6300.03 56.16 56.12 1.566 11.02 6.58 29.7 29.7
6305.02 56.16 56.12 1.566 11.01 6.48 29.8 29.9
6310.08 55.99 56.05 1.566 11.00 6.32 29.6 29.6
6315.05 55.79 56.15 1.566 11.01 6.63 29.7 29.7
6320.15 55.96 56.22 1.566 11.00 6.41 29.8 29.8
6325.10 56.09 56.02 1.566 11.01 6.65 29.7 29.7
6330.05 56.21 56.02 1.566 11.00 6.57 29.7 29.8
6335.13 56.29 56.21 1.566 11.00 6.50 29.8 29.8
6340.11 56.29 56.21 1.566 11.01 6.55 29.8 29.5
6345.03 56.02 56.31 1.566 11.00 6.23 29.8 29.7
6350.10 56.02 56.10 1.566 11.01 6.55 29.8 29.7
6355.04 56.19 56.30 1.566 11.01 6.35 29.8 29.8
6360.00 56.24 56.34 1.566 11.03 6.56 29.7 29.8
6365.09 56.29 56.04 1.566 11.00 6.35 29.7 29.7
6370.04 56.33 56.24 1.566 11.01 6.38 29.6 29.7
6375.00 56.35 56.24 1.566 11.03 6.59 29.7 29.7
6380.07 56.35 56.33 1.566 11.00 6.56 29.7 29.9
6385.05 56.35 56.33 1.566 11.02 6.58 29.6 29.6
6390.12 56.32 56.31 1.566 11.02 6.63 29.7 29.7
6395.11 56.32 56.33 1.566 11.01 6.58 29.6 29.7
6400.04 56.34 56.33 1.566 11.02 6.71 29.6 30.0
6405.00 56.36 56.37 1.566 11.05 6.64 29.8 30.0
6410.10 56.06 56.37 1.566 11.04 6.86 29.6 29.7
6415.03 56.25 56.18 1.566 11.07 6.63 29.7 29.7
6420.01 56.25 56.18 1.566 11.04 6.54 29.6 29.9
6425.07 56.33 56.30 1.566 11.05 6.69 29.8 29.8
6430.04 56.33 56.35 1.566 11.01 6.66 29.7 29.8
6435.11 56.18 56.08 1.566 11.02 6.39 29.7 29.7
6440.08 56.22 56.17 1.566 11.03 6.56 29.6 29.6
6445.03 56.28 56.53 1.566 11.01 6.41 29.6 29.8
6450.12 56.32 56.13 1.566 11.00 6.64 29.8 29.7
6455.08 56.33 56.13 1.566 10.99 6.41 29.7 29.7
6460.01 56.34 56.55 1.566 11.01 6.62 29.6 29.8
6465.14 56.34 56.55 1.566 11.01 6.63 29.8 29.6
6470.05 56.38 56.47 1.566 11.01 6.59 29.7 29.8
6475.10 56.38 56.26 1.566 11.04 6.47 29.7 29.9
6480.04 56.29 56.14 1.566 11.05 6.70 29.7 29.8
6485.00 56.33 56.28 1.566 11.05 6.61 29.7 29.7
6490.10 56.33 56.28 1.566 11.01 6.66 29.8 29.8
6495.03 56.37 56.32 1.566 11.01 6.40 29.7 29.7
6500.01 56.37 56.32 1.566 11.01 6.41 29.7 29.7
6505.07 56.36 56.35 1.566 11.00 6.31 29.6 29.7
6510.05 56.36 56.32 1.566 10.98 6.35 29.6 29.8
6515.14 56.33 56.31 1.566 10.99 6.42 29.6 29.9
6520.10 56.35 56.34 1.566 10.99 6.48 29.6 29.9
6525.04 56.38 56.36 1.566 10.99 6.50 29.6 29.6
6530.13 56.39 56.39 1.566 11.04 6.71 29.7 29.8
6535.09 56.39 56.39 1.566 11.04 6.66 29.8 29.7
6540.02 56.21 56.40 1.566 11.05 6.81 29.7 29.8
6545.13 56.21 56.40 1.566 11.03 6.53 29.7 29.6
6550.04 56.34 56.43 1.566 11.01 6.31 29.6 29.5
6555.02 56.34 56.42 1.566 11.03 6.59 29.7 29.6
6560.09 56.36 56.40 1.566 10.99 6.42 29.6 29.7
6565.04 56.38 56.41 1.566 11.05 6.78 29.7 29.6
6570.01 56.38 56.41 1.566 11.01 6.35 29.7 29.7
6575.08 56.11 56.09 1.566 11.03 6.42 29.7 29.7
6580.05 56.11 56.09 1.566 11.04 6.43 29.7 29.7
6585.13 56.42 56.52 1.566 11.05 6.72 29.6 29.7
6590.11 56.42 56.48 1.566 11.01 6.51 29.7 29.8
6595.04 56.21 56.45 1.566 11.03 6.59 29.8 29.7
6600.00 56.25 56.44 1.566 11.00 6.36 29.7 29.7
6605.09 56.60 56.41 1.566 11.03 6.32 29.7 29.7
6610.04 56.54 56.39 1.566 11.01 6.41 29.7 29.8
6615.00 56.47 56.39 1.566 10.98 6.39 29.7 29.6
6620.07 56.42 56.39 1.566 11.00 6.57 29.6 29.7
6625.05 56.42 56.39 1.566 11.03 6.67 29.7 29.8
6630.12 56.38 56.37 1.566 11.01 6.57 29.6 29.7
6635.10 56.38 56.36 1.566 11.03 6.78 29.7 29.6
6640.03 56.36 56.36 1.566 11.01 6.50 29.4 29.7
6645.00 56.36 56.05 1.566 11.01 6.66 29.7 29.8
6650.11 56.36 56.05 1.566 11.00 6.34 29.5 29.7
6655.04 56.34 56.22 1.566 11.02 6.61 29.7 29.8
6660.03 56.34 56.22 1.566 11.01 6.53 29.7 29.7
6665.09 56.03 56.26 1.566 11.05 6.74 29.7 29.7
6670.07 56.03 56.28 1.566 11.06 6.76 29.6 29.7
6675.00 56.71 56.62 1.566 11.04 6.73 29.8 29.9
6680.11 56.31 56.54 1.566 11.01 6.29 29.7 29.7
6685.05 56.35 56.20 1.566 11.02 6.50 29.7 29.6
6690.00 56.38 56.63 1.566 10.99 6.30 29.8 29.8
6695.11 56.38 56.63 1.566 10.99 6.39 29.8 29.5
6700.02 56.39 56.20 1.566 10.99 6.56 29.7 29.6
6705.00 56.39 56.20 1.566 11.00 6.28 29.6 29.6
6710.05 56.41 56.31 1.566 11.03 6.66 29.7 29.8
6715.03 56.41 56.34 1.566 11.03 6.73 29.7 29.7
6720.12 56.11 56.36 1.566 11.01 6.38 29.7 29.8
6725.11 56.42 56.20 1.566 10.99 6.54 29.5 29.7
6730.07 56.61 56.20 1.566 11.02 6.43 29.7 29.7
6735.00 56.03 56.01 1.566 11.02 6.42 29.6 29.8
6740.10 56.03 56.01 1.566 11.01 6.38 29.4 29.6
6745.01 56.27 56.58 1.566 11.01 6.61 29.6 29.5
6750.13 56.27 56.52 1.566 10.98 6.44 29.6 29.6
6755.06 56.33 56.46 1.566 10.99 6.59 29.5 29.7
6760.02 56.35 56.43 1.566 11.02 6.64 29.7 29.7
6765.12 56.67 56.40 1.566 11.03 6.63 29.5 29.7
6770.06 56.56 56.37 1.566 11.02 6.45 29.6 29.5
6775.03 56.19 56.37 1.566 11.02 6.47 29.6 29.8
6780.11 56.57 56.35 1.566 10.99 6.53 29.7 29.6
6785.08 56.57 56.35 1.566 11.01 6.33 29.7 29.6
6790.00 56.16 56.38 1.566 11.00 6.56 29.6 29.8
6795.13 56.22 56.38 1.566 11.01 6.55 29.6 29.6
6800.07 56.26 56.37 1.566 11.05 6.72 29.5 29.5
6805.02 56.29 56.36 1.566 11.05 6.76 29.6 29.7
6810.13 56.31 56.36 1.566 11.03 6.60 29.4 29.7
6815.06 56.33 56.05 1.566 11.02 6.55 29.6 29.7
6820.04 56.33 56.05 1.566 11.02 6.24 29.6 29.7
6825.11 56.34 56.21 1.566 11.01 6.47 29.7 29.7
6830.08 56.34 56.27 1.566 10.99 6.44 29.6 29.6
6835.02 56.33 56.63 1.566 11.02 6.56 29.5 29.6
6840.14 56.32 56.22 1.566 11.00 6.48 29.5 29.7
6845.08 56.33 56.25 1.566 11.01 6.50 29.7 29.5
6850.11 56.39 56.25 1.566 11.01 6.39 29.6 29.5
6855.09 56.39 56.25 1.566 11.00 6.48 29.6 29.5
6860.00 56.38 56.31 1.566 11.03 6.66 29.6 29.7
6865.13 56.38 56.31 1.566 11.00 6.38 29.5 29.7
6870.04 56.38 56.36 1.566 11.02 6.61 29.6 29.7
6875.02 56.38 56.37 1.566 11.03 6.62 29.7 29.6
6880.11 56.09 56.38 1.566 11.05 6.86 29.6 29.6
6885.05 56.16 56.35 1.566 11.01 6.68 29.5 29.4
6890.03 56.52 56.35 1.566 11.04 6.54 29.5 29.9
6895.09 56.18 56.09 1.566 11.02 6.53 29.6 29.6
6900.06 56.18 56.09 1.566 11.01 6.33 29.7 29.6
6905.13 56.30 56.26 1.566 11.01 6.37 29.7 29.6
6910.10 56.30 56.01 1.566 10.98 6.39 29.5 29.8
6915.03 56.36 56.46 1.566 10.99 6.45 29.6 29.4
6920.14 56.37 56.42 1.566 11.00 6.58 29.6 29.5
6925.07 56.40 56.11 1.566 11.02 6.44 29.5 29.4
6930.02 56.38 56.28 1.566 11.04 6.60 29.6 29.7
6935.14 56.38 56.28 1.566 11.02 6.68 29.6 29.4
6940.04 56.42 56.38 1.566 11.04 6.67 29.6 29.5
6945.02 56.42 56.38 1.566 11.00 6.59 29.6 29.4
6950.08 56.18 56.36 1.566 11.02 6.45 29.6 29.6
6955.06 56.18 56.36 1.566 11.01 6.33 29.7 29.6
6960.00 56.29 56.37 1.566 11.03 6.29 29.5 29.4
6965.11 56.31 56.36 1.566 11.03 6.34 29.5 29.5
6970.07 56.32 56.36 1.566 11.02 6.20 29.6 29.7
6975.10 56.21 56.22 1.566 11.01 6.43 29.7 29.8
6980.07 56.21 56.22 1.566 11.01 6.39 29.6 29.7
6985.13 56.31 56.32 1.566 11.01 6.25 29.6 29.5
6990.11 56.31 56.03 1.566 10.99 6.41 29.6 29.6
6995.04 56.34 56.45 1.566 11.00 6.27 29.7 29.8
7000.00 56.06 56.44 1.566 11.01 6.45 29.7 29.6
7005.09 56.19 56.14 1.644 11.00 6.30 29.4 29.6
7010.03 56.52 56.28 1.644 10.98 10.68 29.6 29.8
7015.15 56.52 56.28 1.644 10.93 11.11 29.5 29.7
7020.06 56.45 56.66 1.644 10.90 11.20 29.5 29.4
7025.04 56.45 56.88 1.644 10.92 11.00 29.6 29.6
7030.11 57.27 56.72 1.644 10.93 10.97 29.5 29.6
7035.07 57.32 57.26 1.644 10.92 10.88 29.5 29.6
7040.01 57.34 57.62 1.644 10.92 10.86 29.5 29.7
7045.10 57.86 58.00 1.644 10.91 10.84 29.5 29.5
7050.07 57.86 58.00 1.644 10.93 10.65 29.3 29.5
7055.13 58.10 58.18 1.644 10.92 10.63 29.4 29.6
7060.10 58.10 58.21 1.644 10.89 10.33 29.6 29.6
7065.03 58.77 58.57 1.644 10.93 10.54 29.4 29.5
7070.00 58.93 58.96 1.644 10.89 10.48 29.4 29.7
7075.10 59.04 58.96 1.644 10.91 10.35 29.6 29.7
7080.03 59.48 59.36 1.644 10.91 10.10 29.6 29.8
7085.00 59.48 59.37 1.644 10.91 10.02 29.5 29.7
7090.06 59.49 59.77 1.644 10.92 10.25 29.6 29.6
7095.01 59.78 59.71 1.644 10.97 10.44 29.6 29.4
7100.14 59.92 59.71 1.644 10.94 10.01 29.6 29.4
7105.07 60.15 60.41 1.644 10.93 9.66 29.6 29.6
7110.04 60.15 60.39 1.644 10.95 10.02 29.6 29.6
7115.11 60.50 60.38 1.644 10.92 9.62 29.6 29.6
7120.07 60.45 60.34 1.644 10.90 9.72 29.6 29.9
7125.03 60.41 60.34 1.644 10.92 9.85 29.4 29.9
7130.12 60.91 60.88 1.644 10.94 9.67 29.5 29.6
7135.10 60.91 60.68 1.644 10.93 9.45 29.6 29.7
7140.03 60.95 60.94 1.644 10.94 9.61 29.6 29.4
7145.14 61.20 60.83 1.644 10.94 9.38 29.6 29.4
7150.11 61.20 60.83 1.644 10.96 9.84 29.6 29.4
7155.03 61.24 61.47 1.644 10.96 9.78 29.6 29.5
7160.02 61.30 61.41 1.644 10.95 9.75 29.6 29.6
7165.11 61.33 61.39 1.644 10.96 9.65 29.6 29.4
7170.05 61.34 61.37 1.644 10.93 9.29 29.6 29.6
7175.04 61.34 61.73 1.644 10.95 9.35 29.5 29.3
7180.12 61.61 61.62 1.644 10.94 9.24 29.5 29.6
7185.07 61.50 61.49 1.644 10.99 9.72 29.4 29.4
7190.05 61.45 61.49 1.644 10.96 9.46 29.4 29.6
7195.13 61.80 61.79 1.644 10.96 9.29 29.5 29.3
7200.09 61.80 62.02 1.644 10.95 9.49 29.5 29.5
7205.03 61.80 61.82 1.644 10.94 9.35 29.6 29.6
7210.14 61.92 61.92 1.644 10.97 9.83 29.6 29.5
7215.12 61.92 61.92 1.644 10.94 9.20 29.6 29.4
7220.03 61.65 61.63 1.644 10.96 9.37 29.5 29.5
7225.10 62.05 62.02 1.644 10.92 9.31 29.5 29.6
7230.06 62.30 61.90 1.644 10.96 9.51 29.5 29.7
7235.00 61.80 62.02 1.644 10.93 9.14 29.6 29.5
7240.12 61.80 62.19 1.644 10.94 9.28 29.7 29.6
7245.04 62.22 61.95 1.644 10.95 9.27 29.4 29.5
7250.00 62.33 62.28 1.644 10.92 8.97 29.6 29.4
7255.10 62.04 62.28 1.644 10.95 9.48 29.6 29.4
7260.03 62.01 62.13 1.644 10.97 9.30 29.5 29.4
7265.02 62.17 62.22 1.644 10.95 9.27 29.5 29.6
7270.11 62.30 61.96 1.644 10.92 8.97 29.6 29.7
7275.05 62.03 62.26 1.644 10.92 8.89 29.5 29.5
7280.03 62.03 62.34 1.644 10.96 9.27 29.6 29.5
7285.10 62.33 62.41 1.644 10.96 9.24 29.4 29.6
7290.06 62.02 62.45 1.644 10.94 9.14 29.4 29.4
7295.03 62.16 62.45 1.644 10.96 9.28 29.5 29.5
7300.10 62.37 62.25 1.644 10.94 9.19 29.5 29.6
7305.07 62.39 62.33 1.644 10.96 9.42 29.5 29.5
7310.02 62.41 62.01 1.644 10.95 9.37 29.6 29.6
7315.11 62.13 62.31 1.644 10.95 9.23 29.5 29.3
7320.07 62.13 62.39 1.644 10.99 9.43 29.6 29.6
7325.15 62.35 62.43 1.644 11.01 9.45 29.5 29.3
7330.11 62.05 62.23 1.644 10.97 8.96 29.5 29.4
7335.06 62.20 62.23 1.644 10.96 9.30 29.5 29.5
7340.00 62.44 62.42 1.644 10.95 9.04 29.5 29.5
7345.09 62.63 62.26 1.644 10.96 9.20 29.5 29.5
7350.13 62.33 62.12 1.644 10.93 9.10 29.5 29.6
7355.07 62.45 62.62 1.644 10.90 8.99 29.5 29.5
7360.04 62.45 62.62 1.644 10.95 9.26 29.6 29.6
7365.11 62.25 62.31 1.644 10.95 9.18 29.5 29.4
7370.07 62.33 62.41 1.644 10.99 9.41 29.4 29.5
7375.04 62.37 62.41 1.644 10.94 9.36 29.4 29.6
7380.12 62.44 62.08 1.644 10.96 9.44 29.5 29.4
7385.08 62.44 62.29 1.644 10.93 9.17 29.5 29.4
7390.00 62.55 62.43 1.644 10.96 9.17 29.5 29.4
7395.11 62.17 62.46 1.644 10.94 9.03 29.6 29.2
7400.07 62.17 62.46 1.644 10.96 9.06 29.5 29.4
7405.14 62.37 62.12 1.644 10.96 9.18 29.6 29.4
7410.11 62.41 62.72 1.644 10.96 9.12 29.6 29.5
7415.07 62.42 62.72 1.644 10.98 9.24 29.4 29.4
7420.01 62.38 62.54 1.644 10.94 9.00 29.4 29.3
7425.00 62.38 62.51 1.644 10.97 9.15 29.5 29.4
7430.07 62.48 62.51 1.644 10.95 9.23 29.5 29.5
7435.02 62.30 61.95 1.644 10.99 9.22 29.7 29.4
7440.13 62.30 61.95 1.644 10.96 9.27 29.5 29.6
7445.04 62.44 62.28 1.644 10.95 9.25 29.5 29.6
7450.02 62.48 62.35 1.644 10.95 9.08 29.5 29.4
7455.11 62.50 62.42 1.644 10.96 9.11 29.3 29.6
7460.05 62.46 62.44 1.644 10.97 9.10 29.5 29.4
7465.04 62.46 62.46 1.644 10.93 8.94 29.6 29.8
7470.11 62.49 62.49 1.644 10.95 9.17 29.6 29.2
7475.11 62.29 62.30 1.644 10.98 9.46 29.6 29.5
7480.10 62.29 62.30 1.644 10.93 9.13 29.5 29.4
7485.01 62.39 62.38 1.644 10.98 9.28 29.5 29.6
7490.13 62.45 62.44 1.644 10.96 9.26 29.4 29.5
7495.08 62.46 62.46 1.644 10.98 9.19 29.4 29.4
7500.02 62.49 62.48 1.644 10.92 9.18 29.5 29.4
7505.14 62.49 62.50 1.644 10.92 9.17 29.4 29.4
7510.06 62.16 62.52 1.644 10.95 9.29 29.4 29.4
7515.02 62.29 62.17 1.644 10.94 9.06 29.4 29.5
7520.13 62.36 62.17 1.644 10.94 9.19 29.5 29.2
7525.05 62.45 62.78 1.644 10.96 9.22 29.5 29.5
7530.02 62.15 62.68 1.644 10.98 9.38 29.4 29.4
7535.09 62.35 62.69 1.644 10.96 9.00 29.4 29.5
7540.14 62.61 62.17 1.644 10.96 9.16 29.4 29.4
7545.11 62.61 62.30 1.644 10.96 9.04 29.5 29.6
7550.03 62.54 62.37 1.644 10.97 9.06 29.5 29.5
7555.00 62.53 62.45 1.644 10.93 9.00 29.5 29.5
7560.10 62.17 62.45 1.644 10.96 9.16 29.5 29.3
7565.03 62.31 62.45 1.644 10.96 9.18 29.4 29.4
7570.01 62.39 62.09 1.644 10.92 8.71 29.4 29.4
7575.10 62.43 62.24 1.644 10.97 9.32 29.6 29.4
7580.05 62.41 62.36 1.644 10.93 8.99 29.4 29.2
7585.04 62.41 62.40 1.644 10.94 9.08 29.5 29.4
7590.11 62.48 62.45 1.644 10.93 9.19 29.3 29.3
7595.07 62.49 62.26 1.644 10.94 9.01 29.6 29.4
7600.12 62.64 62.26 1.644 10.93 9.01 29.6 29.4
7605.05 62.39 62.48 1.644 10.93 9.10 29.4 29.4
7610.03 62.43 62.47 1.644 10.94 9.28 29.4 29.6
7615.12 62.08 62.50 1.644 10.95 9.27 29.5 29.5
7620.06 62.33 62.54 1.644 10.96 9.20 29.4 29.5
7625.03 62.33 62.54 1.644 10.97 9.17 29.4 29.5
7630.10 62.45 62.56 1.644 10.98 9.31 29.5 29.3
7635.06 62.45 62.25 1.644 11.02 9.14 29.4 29.4
7640.03 62.45 62.25 1.644 10.94 9.07 29.5 29.4
7645.12 62.43 62.60 1.644 10.96 9.26 29.4 29.3
7650.09 62.43 62.18 1.644 10.96 9.02 29.5 29.6
7655.03 62.20 62.27 1.644 10.96 9.16 29.5 29.4
7660.00 62.64 62.39 1.644 10.95 9.16 29.2 29.3
7665.11 62.64 62.39 1.644 10.95 9.10 29.4 29.2
7670.02 62.33 62.46 1.644 10.94 9.00 29.5 29.4
7675.00 62.79 62.13 1.644 10.93 9.01 29.5 29.3
7680.10 62.71 62.13 1.644 10.94 9.08 29.6 29.5
7685.03 62.45 62.79 1.644 10.94 9.00 29.5 29.6
7690.11 62.45 62.79 1.644 10.94 9.10 29.5 29.5
7695.04 62.54 62.38 1.644 10.92 9.05 29.6 29.5
7700.00 62.16 62.46 1.644 10.96 9.03 29.5 29.2
7705.12 62.16 62.46 1.644 10.94 8.94 29.4 29.3
7710.03 62.38 62.49 1.644 10.95 9.33 29.4 29.2
7715.02 62.40 62.44 1.644 10.92 9.15 29.4 29.4
7720.12 62.38 62.44 1.644 10.96 9.24 29.4 29.4
7725.11 62.60 62.24 1.644 10.95 9.24 29.2 29.2
7730.08 62.60 62.34 1.644 10.93 8.90 29.5 29.6
7735.01 62.55 62.41 1.644 10.95 9.00 29.5 29.7
7740.11 62.55 62.47 1.644 10.94 8.89 29.3 29.4
7745.08 62.55 62.47 1.644 10.96 9.01 29.4 29.3
7750.00 62.20 62.50 1.644 10.97 9.19 29.5 29.4
7755.11 62.30 62.54 1.644 10.94 9.03 29.4 29.4
7760.07 62.40 62.54 1.644 10.97 9.03 29.4 29.5
7765.14 62.47 62.30 1.644 10.98 9.29 29.5 29.5
7770.11 62.47 62.37 1.644 10.95 9.09 29.4 29.3
7775.04 62.50 62.43 1.644 10.97 9.17 29.3 29.4
7780.00 62.26 62.48 1.644 10.94 9.03 29.4 29.4
7785.11 62.26 62.48 1.644 10.96 9.22 29.4 29.5
7790.03 62.42 62.51 1.644 10.95 9.16 29.4 29.4
7795.00 62.45 62.49 1.644 10.96 9.08 29.4 29.6
7800.10 62.48 62.49 1.644 10.95 9.26 29.3 29.4
7805.02 62.52 62.54 1.644 10.96 9.18 29.4 29.2
7810.00 62.52 62.54 1.644 10.96 9.17 29.5 29.3
7815.08 62.53 62.54 1.644 10.96 9.19 29.3 29.3
7820.03 62.53 62.53 1.644 10.96 9.08 29.5 29.3
7825.01 62.53 62.53 1.644 10.94 9.02 29.3 29.4
7830.06 62.54 62.16 1.644 10.93 9.10 29.4 29.3
7835.04 62.51 62.26 1.644 10.94 9.08 29.3 29.5
7840.13 62.16 62.34 1.644 10.96 9.14 29.4 29.3
7845.06 61.80 62.47 1.644 10.95 9.01 29.3 29.4
7850.12 61.80 62.26 1.644 10.94 9.15 29.4 29.3
7855.05 62.85 62.51 1.644 10.95 8.98 29.5 29.5
7860.02 62.67 62.49 1.644 10.98 9.44 29.3 29.3
7865.13 62.67 62.49 1.644 10.93 9.08 29.4 29.6
7870.04 62.59 62.51 1.644 10.95 8.96 29.4 29.4
7875.02 62.58 62.52 1.644 10.95 9.23 29.4 29.3
7880.10 62.55 62.15 1.644 10.95 9.10 29.4 29.5
7885.05 62.45 62.67 1.644 10.94 9.20 29.4 29.2
7890.04 62.45 62.58 1.644 10.98 9.14 29.5 29.4
7895.12 62.44 62.54 1.644 10.95 9.17 29.3 29.2
7900.08 62.48 62.52 1.644 10.92 9.16 29.4 29.2
7905.04 62.50 62.52 1.644 10.94 9.04 29.5 29.5
7910.13 62.46 62.46 1.644 10.92 9.00 29.4 29.4
7915.11 62.49 62.48 1.644 10.95 9.11 29.5 29.5
7920.05 62.51 62.13 1.644 10.93 9.02 29.4 29.4
7925.00 62.49 62.33 1.644 10.93 8.94 29.4 29.6
7930.11 62.49 62.40 1.644 10.93 9.16 29.3 29.3
7935.04 62.49 62.43 1.644 10.95 9.01 29.4 29.3
7940.01 62.44 62.40 1.644 10.93 9.00 29.5 29.1
7945.12 62.43 62.40 1.644 10.96 9.27 29.5 29.3
7950.05 62.51 62.47 1.644 10.95 9.22 29.5 29.3
7955.02 62.51 62.47 1.644 10.94 9.03 29.4 29.3
7960.11 62.14 62.48 1.644 10.96 9.07 29.4 29.3
7965.06 62.72 62.50 1.644 10.99 9.00 29.5 29.3
7970.03 62.72 62.45 1.644 10.96 9.22 29.4 29.4
7975.13 62.53 62.42 1.644 10.97 9.23 29.5 29.4
7980.09 62.54 62.46 1.644 10.98 9.11 29.3 29.3
7985.04 62.54 62.46 1.644 10.94 9.10 29.4 29.2
7990.13 62.47 62.44 1.644 10.97 9.28 29.3 29.4
7995.11 62.50 62.46 1.644 10.95 9.07 29.3 29.4
8000.04 62.15 62.49 1.644 10.98 9.16 29.4 29.4
8005.14 62.09 62.47 1.722 10.95 8.94 29.3 29.4
8010.11 62.09 62.50 1.722 10.87 12.78 29.2 29.3
8015.04 62.33 62.50 1.722 10.86 13.87 29.3 29.2
8020.00 62.79 62.89 1.722 10.85 14.24 29.4 29.4
8025.11 63.07 62.89 1.722 10.83 14.14 29.3 29.5
8030.03 63.41 62.95 1.722 10.83 13.92 29.1 29.4
8035.02 63.46 63.15 1.722 10.82 14.14 29.2 29.3
8040.11 63.50 63.28 1.722 10.85 13.89 29.2 29.3
8045.05 63.56 63.86 1.722 10.87 13.62 29.3 29.3
8050.04 63.56 64.17 1.722 10.83 13.27 29.2 29.5
8055.11 64.26 64.40 1.722 10.85 12.84 29.4 29.7
8060.07 64.59 64.25 1.722 10.87 13.12 29.3 29.4
8065.05 64.59 64.42 1.722 10.85 13.35 29.3 29.2
8070.13 64.69 64.96 1.722 10.86 13.00 29.3 29.4
8075.10 64.78 64.89 1.722 10.90 13.03 29.3 29.4
8080.07 64.78 64.89 1.722 10.88 12.94 29.4 29.4
8085.14 65.50 64.86 1.722 10.85 12.90 29.3 29.5
8090.11 65.55 65.55 1.722 10.88 12.95 29.3 29.4
8095.09 65.55 65.55 1.722 10.87 12.60 29.2 29.2
8100.10 65.69 65.40 1.722 10.85 12.89 29.3 29.3
8105.08 65.83 65.77 1.722 10.87 12.57 29.2 29.4
8110.04 65.90 65.77 1.722 10.90 12.84 29.2 29.4
8115.13 65.97 66.33 1.722 10.90 12.61 29.3 29.3
8120.09 66.02 66.23 1.722 10.86 12.73 29.3 29.2
8125.05 66.06 66.23 1.722 10.89 12.83 29.2 29.2
8130.13 66.04 66.02 1.722 10.88 12.75 29.2 29.3
8135.11 66.05 66.48 1.722 10.86 12.28 29.2 29.4
8140.07 66.50 66.48 1.722 10.87 12.40 29.4 29.3
8145.01 66.51 66.63 1.722 10.89 12.40 29.2 29.2
8150.13 66.42 66.69 1.722 10.88 12.20 29.3 29.3
8155.07 66.78 66.69 1.722 10.90 12.51 29.1 29.4
8160.00 66.73 66.40 1.722 10.86 12.16 29.3 29.3
8165.12 66.50 66.94 1.722 10.91 12.00 29.4 29.2
8170.08 66.35 66.94 1.722 10.89 12.20 29.3 29.2
8175.02 66.90 66.86 1.722 10.85 12.53 29.4 29.2
8180.00 67.05 67.13 1.722 10.87 12.10 29.3 29.3
8185.10 67.15 67.13 1.722 10.90 12.04 29.4 29.2
8190.03 66.98 66.83 1.722 10.90 11.89 29.2 29.3
8195.01 67.13 67.13 1.722 10.92 12.26 29.1 29.3
8200.12 66.79 67.13 1.722 10.93 12.58 29.3 29.4
8205.04 67.13 67.00 1.722 10.91 12.33 29.3 29.5
8210.02 67.20 67.21 1.722 10.89 12.50 29.2 29.4
8215.13 67.25 67.21 1.722 10.87 12.03 29.2 29.5
8220.06 67.31 66.85 1.722 10.87 12.15 29.1 29.3
8225.11 67.12 67.55 1.722 10.89 12.47 29.1 29.3
8230.06 67.01 67.55 1.722 10.90 12.34 29.2 29.3
8235.13 67.23 67.19 1.722 10.87 12.01 29.1 29.4
8240.11 67.29 67.31 1.722 10.90 12.34 29.1 29.4
8245.07 67.32 67.31 1.722 10.90 12.19 29.1 29.4
8250.00 67.37 67.36 1.722 10.88 12.46 29.1 29.5
8255.12 67.37 67.38 1.722 10.87 11.81 29.3 29.3
8260.09 67.37 67.38 1.722 10.90 12.31 29.3 29.3
8265.02 67.38 67.35 1.722 10.87 12.08 29.2 29.3
8270.13 67.37 67.36 1.722 10.85 11.83 29.2 29.3
8275.11 67.37 67.81 1.722 10.88 12.22 29.1 29.2
8280.04 67.36 67.64 1.722 10.89 11.97 29.1 29.2
8285.02 67.33 67.17 1.722 10.90 11.82 29.3 29.3
8290.13 67.33 67.24 1.722 10.88 12.04 29.3 29.4
8295.06 67.34 67.28 1.722 10.86 12.00 29.3 29.1
8300.03 67.78 67.62 1.722 10.90 11.92 29.3 29.4
8305.01 67.78 67.53 1.722 10.92 12.14 29.3 29.4
8310.09 67.54 67.45 1.722 10.86 11.81 29.3 29.3
8315.05 67.43 67.39 1.722 10.94 11.97 29.3 29.2
8320.03 67.43 67.38 1.722 10.90 12.01 29.3 29.2
8325.11 67.39 67.37 1.722 10.90 12.08 29.3 29.2
8330.07 67.67 67.37 1.722 10.86 11.72 29.4 29.2
8335.04 67.67 67.36 1.722 10.89 12.03 29.3 29.3
8340.12 67.49 67.38 1.722 10.90 11.97 29.2 29.4
8345.08 66.80 67.36 1.722 10.91 11.73 29.3 29.4
8350.12 66.80 67.62 1.722 10.89 11.91 29.3 29.4
8355.05 67.90 67.80 1.722 10.89 11.84 29.2 29.3
8360.02 67.61 67.57 1.722 10.87 12.24 29.2 29.4
8365.14 67.52 67.51 1.722 10.88 12.08 29.3 29.3
8370.08 67.47 67.46 1.722 10.87 12.26 29.2 29.2
8375.03 67.71 67.40 1.722 10.86 12.17 29.3 29.2
8380.02 67.57 67.38 1.722 10.82 11.55 29.1 29.3
8385.11 67.48 67.34 1.722 10.88 11.95 29.2 29.4
8390.05 67.36 67.32 1.722 10.91 12.08 29.3 29.4
8395.02 67.46 67.44 1.722 10.89 12.22 29.1 29.2
8400.09 67.52 67.51 1.722 10.90 11.85 29.2 29.0
8405.04 67.43 67.84 1.722 10.85 11.86 29.3 29.4
8410.02 67.38 67.83 1.722 10.85 11.87 29.3 29.2
8415.14 67.34 67.83 1.722 10.88 11.72 29.3 29.6
8420.06 67.82 67.59 1.722 10.91 11.98 29.2 29.5
8425.04 67.68 67.49 1.722 10.87 11.56 29.1 29.1
8430.00 67.15 67.49 1.722 10.88 12.26 29.1 29.2
8435.08 67.59 67.43 1.722 10.86 12.03 29.3 29.1
8440.05 67.46 67.32 1.722 10.86 11.88 29.3 29.3
8445.03 67.82 67.32 1.722 10.88 11.80 29.2 29.3
8450.11 67.56 67.33 1.722 10.92 11.95 29.3 29.4
8455.08 67.47 67.32 1.722 10.91 12.23 29.2 29.3
8460.05 67.42 67.32 1.722 10.90 12.48 29.2 29.3
8465.13 67.35 68.04 1.722 10.88 12.02 29.3 29.4
8470.11 67.35 67.51 1.722 10.89 12.03 29.2 29.3
8475.13 67.63 67.51 1.722 10.89 11.82 29.2 29.3
8480.05 67.33 67.38 1.722 10.89 12.03 29.2 29.2
8485.14 67.45 67.53 1.722 10.90 12.22 29.2 29.4
8490.10 67.47 67.53 1.722 10.89 12.17 29.3 29.3
8495.02 67.85 67.47 1.722 10.90 11.89 29.1 29.4
8500.02 67.50 67.77 1.722 10.88 11.98 29.2 29.4
8505.00 67.50 68.11 1.722 10.90 11.83 29.3 29.4
8510.07 67.43 67.87 1.722 10.89 11.96 29.2 29.5
8515.03 67.39 67.60 1.722 10.85 11.60 29.3 29.2
8520.01 67.39 67.55 1.722 10.90 12.08 29.4 29.5
8525.08 67.44 67.53 1.722 10.86 11.75 29.0 29.5
8530.03 67.43 67.49 1.722 10.84 11.74 29.1 29.3
8535.00 67.43 67.46 1.722 10.91 11.89 29.3 29.3
8540.08 67.71 67.44 1.722 10.90 11.74 29.4 29.2
8545.03 68.00 67.44 1.722 10.89 11.95 29.3 29.3
8550.00 68.00 67.43 1.722 10.87 11.91 29.3 29.4
8555.08 67.62 67.40 1.722 10.86 11.91 29.3 29.3
8560.04 67.54 67.43 1.722 10.89 12.00 29.3 29.3
8565.00 67.54 67.46 1.722 10.87 11.96 29.3 29.4
8570.07 67.52 67.47 1.722 10.89 12.15 29.3 29.4
8575.02 67.50 67.92 1.722 10.91 11.87 29.3 29.4
8580.14 67.47 67.73 1.722 10.88 12.20 29.2 29.5
8585.08 67.00 67.60 1.722 10.87 11.92 29.2 29.3
8590.03 67.67 67.78 1.722 10.85 11.64 29.2 29.3
8595.00 67.86 67.09 1.722 10.89 11.63 29.2 29.6
8600.00 67.58 67.04 1.722 10.87 11.84 29.2 29.5
8605.08 67.92 67.55 1.722 10.85 12.02 29.2 29.4
8610.05 67.73 67.48 1.722 10.87 12.18 29.1 29.4
8615.01 67.60 67.87 1.722 10.90 12.12 29.2 29.4
8620.10 67.46 67.58 1.722 10.89 11.77 29.3 29.4
8625.07 67.41 67.95 1.722 10.93 12.03 29.2 29.3
8630.03 67.37 67.72 1.722 10.89 12.18 29.3 29.4
8635.13 67.38 67.48 1.722 10.86 12.11 29.3 29.3
8640.10 67.83 67.45 1.722 10.88 12.06 29.1 29.3
8645.05 68.14 67.45 1.722 10.86 12.04 29.2 29.3
8650.13 67.30 67.43 1.722 10.85 12.06 29.2 29.3
8655.10 67.35 67.73 1.722 10.89 12.07 29.2 29.2
8660.06 67.38 67.73 1.722 10.84 11.86 29.2 29.4
8665.13 67.81 67.68 1.722 10.87 12.11 29.2 29.3
8670.11 67.66 67.50 1.722 10.89 12.17 29.1 29.2
8675.07 67.57 67.50 1.722 10.90 12.22 28.9 29.3
8680.02 67.41 67.67 1.722 10.89 11.83 29.2 29.4
8685.13 67.42 67.53 1.722 10.91 11.77 29.3 29.2
8690.09 67.40 67.53 1.722 10.87 12.10 29.2 29.1
8695.02 67.82 67.43 1.722 10.89 11.68 29.1 29.3
8700.02 67.86 67.38 1.722 10.88 12.00 29.2 29.2
8705.13 67.86 67.38 1.722 10.90 11.85 29.2 29.4
8710.04 67.59 67.37 1.722 10.90 11.95 29.0 29.5
8715.02 67.48 67.82 1.722 10.86 11.74 29.2 29.3
8720.14 67.48 67.95 1.722 10.88 11.57 29.2 29.3
8725.13 67.57 67.58 1.722 10.89 11.76 29.1 29.1
8730.09 67.76 67.47 1.722 10.83 11.89 29.3 29.2
8735.07 67.76 67.43 1.722 10.86 11.90 29.3 29.4
8740.00 67.49 67.39 1.722 10.88 11.93 29.3 29.1
8745.11 67.46 67.86 1.722 10.89 12.12 29.3 29.1
8750.08 67.46 67.72 1.722 10.86 12.20 29.2 29.2
8755.01 67.42 67.62 1.722 10.87 12.05 29.1 29.3
8760.11 67.46 67.81 1.722 10.90 12.27 29.3 29.1
8765.08 67.46 67.69 1.722 10.87 11.99 29.3 29.1
8770.01 67.42 67.59 1.722 10.88 12.02 29.3 29.1
8775.11 67.38 67.47 1.722 10.89 12.06 29.1 29.3
8780.09 67.38 67.41 1.722 10.88 12.07 29.2 29.2
8785.03 68.06 67.81 1.722 10.92 12.16 29.3 29.1
8790.00 67.69 67.17 1.722 10.88 12.02 29.2 29.4
8795.12 67.58 67.24 1.722 10.85 11.73 29.2 29.1
8800.06 67.50 67.71 1.722 10.89 12.03 29.1 29.2
8805.01 67.41 67.50 1.722 10.86 11.89 29.3 29.5
8810.00 67.40 67.47 1.722 10.89 11.99 29.1 29.3
8815.08 67.42 67.44 1.722 10.90 12.13 29.2 29.2
8820.03 67.38 67.69 1.722 10.90 11.91 29.2 29.1
8825.02 67.80 67.54 1.722 10.90 11.36 29.3 29.3
8830.10 67.65 67.46 1.722 10.90 11.94 29.1 29.3
8835.04 67.95 67.44 1.722 10.88 11.95 29.2 29.3
8840.02 67.78 67.87 1.722 10.91 11.80 29.2 29.3
8845.12 67.70 67.87 1.722 10.86 11.72 29.1 29.3
8850.11 67.18 67.57 1.722 10.90 11.79 29.2 29.3
8855.09 67.24 67.45 1.722 10.89 11.55 29.2 29.2
8860.05 67.27 67.45 1.722 10.89 11.95 29.3 29.3
8865.13 67.69 67.46 1.722 10.87 11.97 29.2 29.4
8870.08 67.18 67.46 1.722 10.87 11.74 29.2 29.3
8875.05 67.69 67.46 1.722 10.88 11.68 29.2 29.3
8880.13 67.38 67.41 1.722 10.87 11.91 29.1 29.3
8885.10 67.39 67.84 1.722 10.88 11.73 29.2 29.3
8890.06 67.84 67.84 1.722 10.89 12.13 29.2 29.2
8895.13 67.65 67.64 1.722 10.86 11.93 29.3 29.4
8900.09 67.57 67.50 1.722 10.88 11.92 29.2 29.4
8905.06 67.48 67.50 1.722 10.89 12.31 29.0 29.2
8910.00 67.40 67.39 1.722 10.85 11.87 29.1 29.3
8915.12 67.40 67.40 1.722 10.90 12.09 29.2 29.2
8920.08 67.38 67.40 1.722 10.88 11.65 29.3 29.3
8925.02 67.31 67.32 1.722 10.89 12.21 29.2 29.2
8930.02 67.72 67.59 1.722 10.88 12.11 29.2 29.3
8935.14 67.72 67.59 1.722 10.86 12.30 29.1 29.1
8940.05 67.42 67.48 1.722 10.86 11.90 29.2 29.2
8945.03 67.82 67.41 1.722 10.91 11.72 29.2 29.3
8950.01 67.82 67.41 1.722 10.89 11.86 29.3 29.3
8955.08 67.60 67.40 1.722 10.88 11.94 29.3 29.1
8960.04 67.45 67.39 1.722 10.91 12.41 29.2 29.2
8965.02 67.45 67.37 1.722 10.92 12.02 29.3 29.3
8970.10 67.41 67.38 1.722 10.93 11.87 29.1 29.4
8975.11 67.56 67.84 1.722 10.89 11.90 29.2 29.1
8980.09 67.56 67.66 1.722 10.89 11.77 29.2 29.4
8985.03 67.72 67.54 1.722 10.85 11.52 29.0 29.1
8990.14 67.51 67.42 1.722 10.86 11.73 29.2 29.0
8995.12 67.51 67.41 1.722 10.88 12.11 29.0 29.2
9000.04 67.48 67.42 1.722 10.87 11.92 29.2 29.2
9005.00 67.43 67.43 1.800 10.88 11.98 29.2 29.1
9010.12 67.43 67.38 1.800 10.80 16.59 29.0 29.3
9015.06 67.36 67.81 1.800 10.77 17.76 28.9 29.4
9020.01 68.16 67.90 1.800 10.78 17.59 28.8 29.2
9025.13 67.92 68.18 1.800 10.79 17.12 28.9 29.2
9030.07 67.75 67.92 1.800 10.75 17.76 28.9 29.0
9035.02 68.26 68.53 1.800 10.76 17.62 29.0 29.5
9040.00 68.89 68.95 1.800 10.75 17.45 29.0 29.4
9045.10 69.33 68.95 1.800 10.80 17.66 29.1 29.5
9050.03 69.03 68.84 1.800 10.80 17.16 29.0 29.2
9055.00 69.41 69.57 1.800 10.74 16.74 29.2 29.6
9060.10 69.65 69.57 1.800 10.74 16.36 29.3 29.2
9065.03 69.91 69.85 1.800 10.74 16.87 29.2 29.3
9070.01 70.01 69.98 1.800 10.79 16.82 29.3 29.4
9075.13 70.01 70.03 1.800 10.75 16.47 29.0 29.3
9080.06 70.06 70.06 1.800 10.77 16.77 29.0 29.3
9085.03 70.58 70.55 1.800 10.80 16.62 28.9 29.3
9090.01 70.87 71.05 1.800 10.76 16.41 28.8 29.3
9095.12 71.06 71.05 1.800 10.75 16.05 29.1 29.2
9100.12 70.97 70.47 1.800 10.79 16.74 29.0 29.3
9105.10 70.49 71.08 1.800 10.78 15.92 29.1 29.3
9110.07 70.49 70.75 1.800 10.88 16.70 29.0 29.3
9115.01 71.07 71.00 1.800 10.76 16.34 28.8 29.2
9120.10 71.37 71.35 1.800 10.80 15.72 29.0 29.2
9125.08 71.42 71.43 1.800 10.79 16.49 28.9 29.2
9130.03 71.48 71.47 1.800 10.80 16.47 29.0 29.3
9135.12 71.53 71.50 1.800 10.80 15.89 28.9 29.3
9140.09 71.54 71.54 1.800 10.77 15.65 29.2 29.3
9145.07 71.54 72.03 1.800 10.82 16.01 29.1 29.1
9150.00 71.55 71.87 1.800 10.79 16.14 29.1 29.3
9155.10 72.39 72.21 1.800 10.78 16.06 29.1 29.4
9160.08 72.09 71.88 1.800 10.79 16.04 29.1 29.3
9165.04 71.89 71.88 1.800 10.82 16.36 29.0 29.3
9170.12 71.68 72.01 1.800 10.82 16.22 29.1 29.3
9175.09 72.45 72.28 1.800 10.79 16.22 29.1 29.4
9180.07 72.45 72.02 1.800 10.82 16.73 29.3 29.3
9185.00 71.95 71.85 1.800 10.79 16.10 29.0 29.2
9190.11 72.59 72.00 1.800 10.78 15.78 28.9 29.2
9195.08 72.25 72.25 1.800 10.81 15.94 29.1 29.2
9200.04 72.00 72.25 1.800 10.81 16.06 29.0 29.3
9205.12 72.58 72.71 1.800 10.80 15.84 29.0 29.2
9210.09 72.02 72.09 1.800 10.85 15.99 28.9 29.2
9215.07 72.34 72.40 1.800 10.83 15.64 29.0 29.2
9220.01 72.60 72.63 1.800 10.82 15.61 29.0 29.2
9225.13 72.77 72.78 1.800 10.80 15.96 29.1 29.2
9230.10 72.11 72.10 1.800 10.80 15.95 28.8 29.2
9235.08 72.11 72.43 1.800 10.77 16.14 29.0 29.4
9240.00 72.65 72.65 1.800 10.79 15.77 29.1 29.3
9245.11 72.55 72.89 1.800 10.81 15.68 29.1 29.3
9250.08 72.73 72.17 1.800 10.83 15.67 29.2 29.4
9255.05 72.34 72.17 1.800 10.81 15.82 29.0 29.3
9260.13 72.74 72.67 1.800 10.81 15.43 29.0 29.2
9265.10 72.96 72.41 1.800 10.82 15.81 29.1 29.2
9270.07 72.96 72.64 1.800 10.83 15.99 29.0 29.1
9275.01 72.66 73.31 1.800 10.80 15.87 29.0 29.5
9280.12 72.37 72.64 1.800 10.82 15.78 29.0 29.3
9285.08 72.63 72.56 1.800 10.78 15.50 29.1 29.4
9290.05 72.77 72.74 1.800 10.81 15.94 29.0 29.3
9295.14 72.95 72.86 1.800 10.85 16.10 29.2 29.2
9300.10 73.02 72.47 1.800 10.81 15.39 29.0 29.2
9305.07 72.50 72.68 1.800 10.78 15.46 29.1 29.4
9310.03 72.62 72.75 1.800 10.75 15.41 29.0 29.3
9315.13 72.37 72.57 1.800 10.81 15.99 29.0 29.3
9320.10 72.78 72.86 1.800 10.79 15.34 29.1 29.3
9325.08 72.78 72.91 1.800 10.77 14.90 29.2 29.3
9330.01 72.96 72.94 1.800 10.79 15.95 29.1 29.2
9335.11 73.05 73.04 1.800 10.79 15.60 29.2 29.3
9340.08 72.55 73.05 1.800 10.81 15.35 29.4 29.1
9345.05 72.72 72.98 1.800 10.83 15.64 29.1 29.2
9350.01 73.15 72.44 1.800 10.77 15.71 29.1 29.3
9355.13 72.75 72.44 1.800 10.85 15.64 29.0 29.3
9360.10 72.83 72.64 1.800 10.85 15.51 29.0 29.3
9365.04 72.42 72.79 1.800 10.74 15.16 28.9 29.2
9370.13 72.77 72.94 1.800 10.78 16.04 29.2 29.2
9375.11 72.95 73.02 1.800 10.83 15.38 28.9 29.2
9380.08 72.95 73.05 1.800 10.78 15.08 28.8 29.2
9385.01 73.02 73.05 1.800 10.82 15.83 29.0 29.5
9390.12 73.05 72.56 1.800 10.83 15.65 29.2 29.4
9395.09 72.53 72.87 1.800 10.77 15.28 29.0 29.3
9400.05 72.72 72.44 1.800 10.85 16.05 29.1 29.2
9405.14 72.92 72.66 1.800 10.77 15.36 29.2 29.3
9410.10 72.51 72.89 1.800 10.79 15.86 29.1 29.2
9415.08 72.67 72.98 1.800 10.83 15.95 29.1 29.4
9420.03 72.80 72.99 1.800 10.81 15.34 29.1 29.3
9425.12 72.99 73.04 1.800 10.76 15.49 29.1 29.3
9430.08 73.06 72.60 1.800 10.85 16.04 29.0 29.4
9435.06 73.06 72.77 1.800 10.84 15.80 29.1 29.2
9440.13 72.72 73.40 1.800 10.81 15.63 29.1 29.5
9445.10 72.93 72.71 1.800 10.80 15.81 29.0 29.2
9450.07 72.97 72.58 1.800 10.84 15.94 29.1 29.2
9455.03 72.50 72.75 1.800 10.76 15.36 29.2 29.3
9460.12 72.86 72.88 1.800 10.83 15.60 29.2 29.4
9465.08 72.98 73.00 1.800 10.77 15.62 29.1 29.2
9470.06 72.97 73.00 1.800 10.83 15.53 29.0 29.1
9475.01 72.96 72.98 1.800 10.85 16.09 29.2 29.2
9480.11 73.00 72.98 1.800 10.76 15.11 29.2 29.2
9485.09 73.04 73.04 1.800 10.81 15.94 28.9 29.3
9490.06 73.04 72.56 1.800 10.85 16.23 29.0 29.3
9495.13 72.73 72.73 1.800 10.81 15.37 29.1 29.2
9500.09 72.42 72.42 1.800 10.81 15.75 29.2 29.4
9505.08 72.58 72.71 1.800 10.83 15.88 28.9 29.1
9510.05 72.69 72.77 1.800 10.78 15.05 29.1 29.2
9515.14 72.89 72.88 1.800 10.82 15.70 29.1 29.2
9520.10 72.97 72.98 1.800 10.81 16.10 29.0 29.2
9525.08 72.98 72.98 1.800 10.83 15.57 29.2 29.5
9530.02 73.02 73.01 1.800 10.82 15.74 29.2 29.2
9535.12 73.04 73.04 1.800 10.79 15.61 29.1 29.4
9540.09 73.11 73.10 1.800 10.79 15.52 29.0 29.2
9545.06 73.11 73.08 1.800 10.75 15.35 29.0 29.1
9550.13 72.74 73.07 1.800 10.81 16.05 29.1 29.0
9555.10 72.95 72.56 1.800 10.83 15.49 29.1 29.2
9560.07 73.01 72.53 1.800 10.78 15.48 29.1 29.2
9565.03 73.04 72.68 1.800 10.83 15.97 29.2 29.3
9570.12 72.56 72.82 1.800 10.79 15.39 29.0 29.0
9575.08 72.87 72.99 1.800 10.79 15.72 29.0 29.1
9580.06 72.92 73.01 1.800 10.78 15.21 29.0 29.3
9585.00 72.96 73.02 1.800 10.79 15.47 29.1 29.3
9590.09 73.03 73.04 1.800 10.83 15.77 29.1 29.4
9595.07 73.27 73.05 1.800 10.85 15.58 29.2 29.3
9600.13 73.27 73.25 1.800 10.85 15.79 29.1 29.1
9605.07 72.93 73.38 1.800 10.77 15.30 29.0 29.4
9610.03 73.01 72.72 1.800 10.80 15.80 29.1 29.3
9615.02 72.98 73.02 1.800 10.84 15.86 29.0 29.3
9620.14 72.98 73.06 1.800 10.80 15.19 29.0 29.2
9625.06 73.06 72.58 1.800 10.74 15.49 28.9 29.1
9630.02 72.54 72.85 1.800 10.83 15.82 29.0 29.3
9635.00 72.74 73.02 1.800 10.84 15.71 29.1 29.2
9640.10 72.88 73.02 1.800 10.78 14.93 28.9 29.1
9645.03 72.97 73.05 1.800 10.82 15.78 29.1 29.3
9650.01 73.00 73.04 1.800 10.82 15.47 29.1 29.1
9655.13 73.02 73.04 1.800 10.82 14.97 29.2 29.1
9660.08 73.05 73.04 1.800 10.74 15.29 29.2 29.4
9665.02 73.08 73.08 1.800 10.79 15.75 29.1 29.4
9670.00 73.11 73.11 1.800 10.80 15.37 29.1 29.2
9675.11 73.11 73.10 1.800 10.80 15.44 29.2 29.3
9680.04 73.09 73.10 1.800 10.79 15.43 28.9 29.2
9685.01 73.06 73.03 1.800 10.77 15.10 28.9 29.0
9690.12 73.09 73.07 1.800 10.77 15.75 29.1 29.5
9695.09 72.58 73.07 1.800 10.85 15.97 29.0 29.4
9700.01 73.37 73.08 1.800 10.79 15.00 29.0 29.2
9705.00 73.20 73.05 1.800 10.80 15.33 29.0 29.2
9710.11 73.15 73.07 1.800 10.79 15.15 29.0 29.3
9715.06 73.13 73.06 1.800 10.81 15.31 28.9 29.4
9720.02 73.03 72.98 1.800 10.82 15.81 29.2 29.2
9725.00 73.05 72.99 1.800 10.79 15.06 29.1 29.1
9730.11 73.05 73.05 1.800 10.81 15.22 29.2 29.3
9735.04 73.09 73.06 1.800 10.82 15.03 29.1 29.3
9740.02 72.97 72.97 1.800 10.78 15.46 28.9 29.2
9745.00 72.99 73.02 1.800 10.84 15.69 28.9 29.1
9750.10 73.03 73.02 1.800 10.79 15.47 29.1 29.2
9755.03 73.57 73.59 1.800 10.82 15.76 29.2 29.2
9760.02 73.30 73.12 1.800 10.85 15.50 29.0 29.1
9765.13 73.25 73.13 1.800 10.80 15.58 29.1 29.2
9770.08 73.20 73.65 1.800 10.82 15.41 28.9 29.2
9775.02 73.50 73.35 1.800 10.73 14.81 29.1 29.0
9780.00 73.27 73.19 1.800 10.79 15.42 29.0 29.3
9785.12 73.27 73.16 1.800 10.79 15.13 29.0 29.4
9790.05 73.15 73.14 1.800 10.82 15.74 29.0 28.9
9795.02 73.08 73.07 1.800 10.87 15.74 29.0 29.1
9800.14 73.09 73.09 1.800 10.78 15.28 29.0 29.2
9805.09 73.09 73.08 1.800 10.81 15.41 28.9 29.4
9810.04 73.07 73.07 1.800 10.77 14.79 29.0 29.1
9815.00 73.09 73.09 1.800 10.73 14.97 29.0 29.2
9820.12 73.11 73.09 1.800 10.81 15.08 29.0 29.4
9825.08 73.11 73.09 1.800 10.75 15.13 29.1 29.4
9830.02 73.01 72.99 1.800 10.86 15.45 28.9 29.4
9835.02 72.96 73.47 1.800 10.82 15.28 28.9 29.3
9840.13 73.02 73.88 1.800 10.83 15.58 29.1 29.3
9845.08 73.57 73.62 1.800 10.79 15.58 29.1 29.3
9850.11 73.12 72.79 1.800 10.83 15.18 28.9 29.2
9855.09 73.08 72.94 1.800 10.80 15.60 29.0 29.3
9860.07 73.08 72.97 1.800 10.77 15.46 29.1 29.2
9865.00 73.07 73.53 1.800 10.74 14.89 29.0 29.3
9870.10 73.10 73.16 1.800 10.80 15.95 29.0 29.2
9875.07 73.05 73.27 1.800 10.82 15.49 29.0 29.3
9880.04 73.03 73.27 1.800 10.82 15.83 29.0 29.2
9885.12 73.95 73.48 1.800 10.86 15.84 28.9 29.4
9890.09 72.96 73.27 1.800 10.84 15.10 29.0 29.0
9895.07 73.01 73.21 1.800 10.84 15.43 29.1 29.2
9900.01 73.55 73.17 1.800 10.77 14.66 29.0 29.1
9905.12 73.21 73.02 1.800 10.78 15.26 29.0 29.3
9910.09 73.12 73.05 1.800 10.78 15.18 29.2 29.1
9915.07 73.12 73.07 1.800 10.77 15.71 29.0 29.2
9920.00 73.06 73.06 1.800 10.84 15.58 29.0 29.0
9925.11 73.06 73.05 1.800 10.81 15.34 28.9 29.2
9930.09 73.07 73.10 1.800 10.83 15.68 29.0 29.0
9935.05 73.08 73.60 1.800 10.81 14.95 29.0 29.1
9940.00 73.05 73.93 1.800 10.73 14.77 29.1 29.4
9945.10 73.06 73.48 1.800 10.77 14.81 29.1 29.4
9950.08 73.59 73.26 1.800 10.76 15.00 29.0 29.1
9955.03 73.48 73.26 1.800 10.74 15.11 29.0 29.2
9960.09 72.99 73.29 1.800 10.84 15.38 29.2 29.1
9965.07 73.93 73.18 1.800 10.84 15.67 29.1 29.1
9970.04 73.55 72.55 1.800 10.87 15.67 28.9 29.2
9975.01 73.30 72.62 1.800 10.79 15.01 29.0 29.2
9980.12 72.58 73.12 1.800 10.78 14.79 29.0 29.2
9985.10 73.37 73.08 1.800 10.80 15.41 29.1 29.2
9990.07 73.37 73.59 1.800 10.77 15.37 29.0 29.1
9995.01 73.18 73.41 1.800 10.77 15.26 29.1 29.2
10000.11 73.48 73.74 1.800 10.83 15.92 28.9 29.3
10005.08 72.85 73.40 1.879 10.83 15.46 28.8 29.2
10010.05 73.45 73.40 1.879 10.68 20.95 28.9 29.4
10015.12 73.60 73.22 1.879 10.65 21.50 28.8 29.1
10020.10 73.29 73.13 1.879 10.64 21.48 29.0 29.1
10025.08 73.71 73.63 1.879 10.72 21.70 29.0 29.3
10030.03 74.01 73.92 1.879 10.61 21.92 28.9 29.0
10035.13 74.35 74.29 1.879 10.69 21.12 28.9 29.3
10040.10 74.50 74.48 1.879 10.75 21.06 29.0 29.4
10045.08 74.54 74.54 1.879 10.70 20.93 28.8 29.4
10050.03 74.56 74.57 1.879 10.61 20.71 28.8 29.3
10055.12 74.60 75.15 1.879 10.62 20.72 28.8 29.3
10060.10 75.53 75.22 1.879 10.68 20.47 28.7 29.3
10065.07 75.25 75.05 1.879 10.65 21.00 28.8 29.3
10070.02 75.60 75.50 1.879 10.69 20.91 28.8 29.2
10075.12 75.91 75.86 1.879 10.69 21.08 28.8 29.1
10080.10 75.59 75.57 1.879 10.64 20.21 28.9 29.1
10085.07 75.76 75.93 1.879 10.70 19.56 28.8 29.2
10090.05 76.46 75.93 1.879 10.70 21.08 28.8 29.4
10095.12 76.36 76.10 1.879 10.72 20.95 28.8 29.2
10100.12 76.20 76.65 1.879 10.71 20.69 28.9 29.4
10105.10 76.24 76.44 1.879 10.66 21.01 28.7 29.4
10110.06 76.26 76.96 1.879 10.63 19.90 28.9 29.1
10115.00 77.24 76.74 1.879 10.67 19.64 28.7 29.2
10120.11 76.73 77.06 1.879 10.66 19.45 28.7 29.2
10125.08 76.51 76.66 1.879 10.64 19.66 28.7 29.1
10130.05 76.99 77.09 1.879 10.66 19.98 28.8 29.3
10135.15 77.30 77.38 1.879 10.68 20.00 28.9 29.5
10140.10 76.74 77.16 1.879 10.74 20.78 28.8 29.5
10145.07 77.50 77.29 1.879 10.73 20.33 29.0 29.4
10150.05 77.61 77.49 1.879 10.75 19.47 28.7 29.3
10155.01 77.68 77.05 1.879 10.73 19.34 28.8 29.3
10160.10 76.95 77.19 1.879 10.69 19.39 28.6 29.4
10165.07 77.55 77.67 1.879 10.72 20.11 28.7 29.2
10170.05 77.67 77.21 1.879 10.78 19.59 28.8 29.3
10175.02 77.16 77.48 1.879 10.71 19.48 28.8 29.3
10180.10 77.30 77.68 1.879 10.65 19.39 28.6 29.1
10185.07 77.72 77.48 1.879 10.72 20.20 28.9 29.3
10190.04 77.94 77.24 1.879 10.73 18.95 28.8 29.4
10195.01 77.39 77.51 1.879 10.68 18.76 28.7 29.1
10200.10 77.60 77.69 1.879 10.71 20.00 28.5 29.2
10205.05 77.88 77.89 1.879 10.80 19.94 28.7 29.1
10210.02 77.38 77.58 1.879 10.69 19.62 28.8 29.2
10215.14 77.59 77.85 1.879 10.69 20.37 28.6 29.2
10220.09 77.74 78.18 1.879 10.67 18.47 28.6 29.3
10225.13 78.33 77.81 1.879 10.74 19.88 28.8 29.3
10230.08 78.18 77.95 1.879 10.68 19.13 28.8 29.3
10235.06 77.46 77.92 1.879 10.82 19.76 28.8 29.2
10240.04 77.55 77.88 1.879 10.67 18.53 28.8 29.2
10245.00 78.27 77.87 1.879 10.70 20.23 28.8 29.2
10250.10 78.14 77.95 1.879 10.70 19.16 28.7 29.3
10255.07 78.11 78.06 1.879 10.75 20.22 28.7 29.3
10260.04 78.09 78.04 1.879 10.81 19.76 28.6 29.4
10265.14 78.09 78.04 1.879 10.64 18.88 28.7 29.3
10270.09 78.07 78.05 1.879 10.75 20.00 28.8 29.3
10275.04 78.05 78.06 1.879 10.69 19.25 28.8 29.2
10280.02 78.05 78.04 1.879 10.84 20.10 28.8 29.4
10285.13 78.05 78.05 1.879 10.69 18.87 28.9 29.3
10290.08 78.05 78.05 1.879 10.72 20.33 28.7 29.2
10295.02 78.02 78.63 1.879 10.74 19.01 28.6 29.2
10300.00 78.04 77.75 1.879 10.73 20.32 28.8 29.3
10305.12 78.06 78.52 1.879 10.69 18.26 28.8 29.2
10310.08 78.06 78.30 1.879 10.69 19.33 28.8 29.1
10315.03 77.94 78.16 1.879 10.63 18.68 28.8 29.3
10320.02 77.89 77.98 1.879 10.66 19.56 28.8 29.2
10325.13 77.98 78.03 1.879 10.61 18.77 28.9 29.0
10330.11 78.02 78.05 1.879 10.73 20.24 28.8 29.1
10335.05 78.03 78.05 1.879 10.72 18.70 28.9 29.2
10340.00 78.04 78.02 1.879 10.69 19.82 28.8 29.2
10345.12 78.06 78.05 1.879 10.63 19.07 28.9 29.3
10350.12 78.82 77.81 1.879 10.77 19.38 28.8 29.1
10355.09 78.82 78.46 1.879 10.61 18.76 28.8 29.2
10360.03 78.35 78.32 1.879 10.80 19.54 28.8 29.3
10365.00 78.09 78.67 1.879 10.64 19.30 28.7 29.0
10370.13 78.07 78.31 1.879 10.72 18.25 28.7 29.2
10375.10 78.04 78.16 1.879 10.65 18.62 28.5 29.3
10380.05 78.06 78.16 1.879 10.71 19.46 28.7 29.3
10385.13 78.04 78.12 1.879 10.66 18.52 28.8 29.3
10390.10 78.05 78.11 1.879 10.70 18.73 28.8 29.2
10395.07 78.04 78.08 1.879 10.68 19.33 28.7 29.3
10400.04 78.04 78.08 1.879 10.76 19.81 28.6 29.1
10405.11 78.04 78.09 1.879 10.66 18.75 28.4 29.3
10410.08 78.05 78.07 1.879 10.72 19.46 28.6 29.3
10415.05 78.56 77.98 1.879 10.68 19.94 28.9 29.4
10420.04 78.98 78.39 1.879 10.69 18.79 28.8 29.3
10425.00 78.67 78.28 1.879 10.66 18.94 28.8 29.2
10430.09 78.32 78.18 1.879 10.76 19.20 28.7 29.3
10435.05 78.10 78.63 1.879 10.71 19.86 28.7 29.3
10440.03 78.09 77.73 1.879 10.64 18.26 28.8 29.1
10445.00 78.06 77.84 1.879 10.68 19.99 28.7 29.1
10450.09 78.06 78.51 1.879 10.75 19.43 28.8 29.0
10455.04 78.03 78.24 1.879 10.74 19.98 28.8 29.1
10460.01 78.04 78.13 1.879 10.67 19.23 28.7 29.3
10465.13 78.04 78.08 1.879 10.77 20.62 28.6 29.3
10470.09 78.04 78.30 1.879 10.66 19.72 28.8 29.3
10475.12 78.45 78.47 1.879 10.67 18.72 28.9 29.4
10480.07 78.25 78.28 1.879 10.75 19.46 28.7 29.2
10485.06 78.02 78.04 1.879 10.68 20.28 28.6 29.1
10490.05 78.51 77.92 1.879 10.77 19.52 28.6 29.1
10495.00 78.93 77.93 1.879 10.71 19.63 28.8 29.3
10500.08 78.43 78.03 1.879 10.79 19.68 28.7 29.2
10505.06 78.23 78.46 1.879 10.79 20.20 28.7 29.0
10510.03 78.17 78.22 1.879 10.79 19.33 28.8 29.0
10515.14 78.13 78.16 1.879 10.67 19.00 28.6 29.3
10520.08 78.10 78.13 1.879 10.74 19.60 28.7 29.3
10525.04 78.05 78.06 1.879 10.68 19.84 28.8 29.4
10530.02 78.01 78.61 1.879 10.76 18.90 28.7 29.2
10535.00 77.97 78.39 1.879 10.69 20.02 28.7 29.3
10540.09 77.96 78.24 1.879 10.77 19.71 28.8 29.1
10545.03 78.05 78.18 1.879 10.68 19.20 28.7 29.1
10550.13 78.16 78.25 1.879 10.70 19.64 28.9 29.2
10555.10 78.14 78.18 1.879 10.62 18.50 28.7 29.4
10560.06 78.09 78.70 1.879 10.72 19.69 28.5 28.9
10565.01 78.06 78.48 1.879 10.67 18.39 28.7 29.1
10570.11 78.06 77.85 1.879 10.72 19.57 28.7 29.2
10575.08 78.05 77.97 1.879 10.66 18.66 28.7 29.1
10580.06 78.02 78.00 1.879 10.74 20.37 28.7 29.4
10585.01 78.00 77.98 1.879 10.73 19.60 28.8 29.1
10590.10 78.04 78.01 1.879 10.70 20.21 28.6 29.4
10595.07 78.06 78.02 1.879 10.65 20.15 28.8 29.3
10600.11 78.55 77.95 1.879 10.69 18.16 28.6 29.3
10605.09 78.55 77.99 1.879 10.70 19.53 28.9 29.4
10610.01 78.22 78.61 1.879 10.73 18.95 28.8 29.1
10615.14 78.06 78.16 1.879 10.65 19.64 28.8 29.1
10620.11 78.05 78.13 1.879 10.69 18.99 28.8 29.2
10625.08 78.05 78.07 1.879 10.63 19.40 28.8 29.2
10630.04 78.03 78.07 1.879 10.73 19.85 28.6 29.4
10635.12 78.01 78.04 1.879 10.63 18.50 28.7 29.2
10640.09 78.08 78.06 1.879 10.69 18.98 28.4 29.1
10645.06 78.05 78.03 1.879 10.67 19.03 28.7 29.2
10650.04 78.05 78.04 1.879 10.77 19.93 28.4 29.2
10655.11 78.04 78.06 1.879 10.71 19.06 28.7 29.2
10660.07 78.05 78.05 1.879 10.75 19.77 28.8 29.0
10665.04 78.05 78.08 1.879 10.64 19.20 28.6 29.3
10670.02 78.62 78.04 1.879 10.83 20.53 28.8 29.2
10675.12 78.44 78.04 1.879 10.75 19.45 29.0 29.3
10680.04 78.27 78.08 1.879 10.75 19.96 28.9 29.2
10685.02 78.14 78.47 1.879 10.69 18.94 28.7 29.1
10690.14 78.09 78.22 1.879 10.83 20.15 28.8 29.3
10695.11 78.06 78.17 1.879 10.67 18.55 28.7 29.2
10700.05 78.67 78.14 1.879 10.76 19.76 28.6 29.1
10705.00 78.32 78.09 1.879 10.66 18.86 28.6 29.3
10710.12 78.18 78.10 1.879 10.74 19.19 28.7 29.3
10715.09 78.12 78.67 1.879 10.64 18.13 28.5 29.3
10720.05 78.10 78.43 1.879 10.69 19.37 28.7 29.3
10725.00 78.01 78.27 1.879 10.66 18.69 28.8 29.2
10730.10 78.04 78.16 1.879 10.72 19.41 28.9 29.2
10735.08 78.05 78.10 1.879 10.68 20.15 28.7 29.1
10740.05 78.63 78.65 1.879 10.79 19.48 28.9 29.1
10745.00 78.40 78.42 1.879 10.69 19.76 28.8 29.4
10750.09 78.21 78.20 1.879 10.76 19.53 28.9 29.2
10755.06 78.73 78.13 1.879 10.78 19.89 28.7 29.2
10760.04 78.50 78.08 1.879 10.70 17.92 28.8 29.2
10765.14 78.37 78.07 1.879 10.66 18.82 28.6 29.3
10770.08 78.18 78.66 1.879 10.67 18.82 28.8 29.3
10775.04 78.09 78.29 1.879 10.70 19.59 28.8 29.1
10780.02 78.03 78.14 1.879 10.61 18.75 28.8 29.2
10785.00 77.99 78.07 1.879 10.78 20.24 28.8 29.2
10790.09 77.98 78.02 1.879 10.68 18.89 28.7 29.2
10795.04 78.41 78.41 1.879 10.76 19.64 28.5 29.1
10800.02 78.22 78.20 1.879 10.70 19.38 28.7 29.3
10805.14 78.73 78.12 1.879 10.74 18.86 28.7 29.1
10810.11 78.73 78.08 1.879 10.68 18.87 28.6 29.2
10815.03 78.35 78.09 1.879 10.73 19.22 28.7 29.2
10820.14 78.17 78.64 1.879 10.63 19.47 28.6 29.4
10825.11 78.10 78.31 1.879 10.66 18.17 28.6 29.4
10830.09 78.08 78.15 1.879 10.67 19.92 28.7 29.2
10835.04 78.09 78.15 1.879 10.75 19.61 28.8 29.4
10840.12 78.06 78.11 1.879 10.70 20.08 28.7 29.2
10845.09 78.45 78.09 1.879 10.66 19.60 28.5 29.2
10850.11 78.52 78.17 1.879 10.72 18.28 28.7 29.1
10855.09 78.52 78.11 1.879 10.65 18.70 28.9 29.1
10860.01 78.26 78.69 1.879 10.74 19.32 28.7 29.2
10865.12 78.14 78.34 1.879 10.67 19.23 28.7 29.2
10870.09 78.12 77.60 1.879 10.64 18.52 28.7 29.1
10875.07 78.08 78.45 1.879 10.68 20.38 28.6 28.8
10880.03 78.07 78.32 1.879 10.75 19.57 28.7 29.2
10885.12 78.45 78.21 1.879 10.73 20.04 28.5 29.1
10890.07 78.24 78.10 1.879 10.76 18.77 28.7 29.1
10895.05 78.61 78.54 1.879 10.79 19.27 28.6 29.3
10900.04 78.41 78.96 1.879 10.67 18.11 28.8 29.0
10905.13 78.32 78.10 1.879 10.73 19.54 28.7 29.2
10910.07 78.17 78.67 1.879 10.66 18.83 28.6 29.4
10915.04 78.06 78.33 1.879 10.71 18.45 28.7 29.1
10920.03 77.98 78.03 1.879 10.64 20.05 28.8 29.4
10925.00 77.97 78.04 1.879 10.76 19.52 28.9 29.1
10930.09 78.01 78.06 1.879 10.72 19.74 28.8 29.5
10935.05 78.42 78.44 1.879 10.71 19.08 28.7 29.2
10940.02 78.20 78.20 1.879 10.77 20.06 28.7 29.4
10945.14 78.15 77.60 1.879 10.68 18.51 28.9 29.4
10950.09 78.68 77.72 1.879 10.66 19.76 28.7 29.1
10955.03 78.36 78.33 1.879 10.66 18.43 28.8 29.3
10960.01 78.08 78.67 1.879 10.73 19.21 28.9 29.4
10965.14 78.03 78.27 1.879 10.61 19.29 28.8 29.4
10970.11 78.01 78.46 1.879 10.67 18.34 28.7 29.1
10975.13 78.47 78.03 1.879 10.74 18.93 28.7 29.2
10980.09 78.24 78.63 1.879 10.67 19.08 28.6 29.1
10985.06 78.15 78.30 1.879 10.61 18.34 28.4 29.0
10990.03 78.12 78.15 1.879 10.71 20.13 28.6 29.1
10995.14 78.09 78.15 1.879 10.73 19.35 28.9 29.2
11000.07 78.50 78.10 1.879 10.73 20.02 28.8 29.2
11005.04 78.25 78.08 1.879 10.68 19.07 28.8 29.2
11010.02 78.70 78.42 1.879 10.80 19.66 28.9 29.3
11015.00 78.70 78.28 1.879 10.66 18.51 28.5 29.2
11020.07 78.34 78.19 1.879 10.74 19.59 28.8 29.6
11025.02 78.16 78.12 1.879 10.71 19.51 28.5 29.2
11030.00 78.13 78.69 1.879 10.72 18.71 28.7 29.2
11035.12 78.08 78.36 1.879 10.67 19.37 28.7 29.2
11040.07 78.09 78.36 1.879 10.74 18.85 28.6 29.3
11045.02 78.35 78.09 1.879 10.72 19.89 28.6 29.3
11050.00 78.79 78.06 1.879 10.68 18.89 28.6 29.4
11055.11 77.81 78.04 1.879 10.79 20.03 28.7 29.2
11060.08 77.88 78.64 1.879 10.67 18.64 28.8 29.3
11065.03 78.53 78.43 1.879 10.77 20.02 28.6 29.1
11070.12 78.26 78.82 1.879 10.70 18.77 28.6 29.2
11075.09 78.13 77.84 1.879 10.76 18.67 28.6 29.2
11080.07 78.07 78.51 1.879 10.62 19.06 28.8 29.4
11085.03 78.03 78.29 1.879 10.77 19.51 28.7 29.2
11090.13 78.41 78.19 1.879 10.64 19.10 28.8 29.1
11095.08 78.23 78.14 1.879 10.63 19.25 28.9 29.2
11100.11 78.37 78.72 1.879 10.79 18.46 28.8 29.1
11105.08 78.18 78.43 1.879 10.67 19.40 28.6 29.0
11110.05 78.05 78.22 1.879 10.68 18.77 28.7 29.0
11115.00 78.06 78.11 1.879 10.70 18.83 28.6 29.1
11120.11 78.07 78.11 1.879 10.69 18.19 28.6 29.1
11125.08 78.04 78.06 1.879 10.66 19.90 28.8 29.2
11130.04 78.05 78.04 1.879 10.74 19.02 28.7 29.2
11135.13 78.45 78.05 1.879 10.66 19.57 28.6 29.1
11140.09 78.33 78.09 1.879 10.76 19.10 28.9 29.0
11145.04 78.80 78.16 1.879 10.69 19.98 28.5 29.2
11150.03 78.48 78.66 1.879 10.75 18.70 28.6 29.0
11155.12 78.32 78.37 1.879 10.68 18.97 28.8 29.1
11160.06 78.18 78.23 1.879 10.75 19.32 28.6 29.1
11165.03 78.09 78.13 1.879 10.73 19.57 28.8 29.2
11170.00 78.21 78.21 1.879 10.78 19.12 28.7 29.3
11175.11 78.21 78.17 1.879 10.66 18.67 28.6 29.4
11180.03 78.13 78.15 1.879 10.79 19.67 28.6 29.2
11185.00 78.07 78.07 1.879 10.73 18.94 28.6 29.2
11190.12 78.05 78.65 1.879 10.79 18.83 28.6 29.2
11195.09 78.03 78.32 1.879 10.68 18.38 28.6 29.3
11200.05 78.04 78.32 1.879 10.78 20.09 28.7 29.1
11205.12 78.05 77.58 1.879 10.71 18.73 28.6 29.1
11210.09 78.12 78.52 1.879 10.73 19.90 28.8 29.1
11215.06 78.04 78.22 1.879 10.62 18.37 28.7 29.3
11220.05 78.04 78.03 1.879 10.66 19.87 28.5 29.2
11225.13 77.91 77.97 1.879 10.68 18.96 28.6 29.4
11230.09 77.99 78.03 1.879 10.70 19.68 28.7 29.1
11235.06 78.02 78.05 1.879 10.63 18.28 28.7 29.3
11240.04 78.63 78.06 1.879 10.68 20.01 28.8 29.5
11245.00 78.42 78.06 1.879 10.79 19.57 28.7 29.2
11250.07 77.83 78.08 1.879 10.68 19.45 28.5 29.5
11255.04 77.92 78.06 1.879 10.67 19.27 28.9 29.3
11260.02 77.98 78.03 1.879 10.64 20.09 28.7 29.1
11265.00 78.59 78.04 1.879 10.78 19.93 28.6 29.4
11270.09 78.42 78.04 1.879 10.68 19.03 28.7 29.2
11275.03 78.09 78.38 1.879 10.79 19.75 28.6 29.1
11280.02 78.66 78.16 1.879 10.70 19.93 28.8 29.2
11285.00 78.44 77.71 1.879 10.85 20.50 28.6 29.2
11290.10 77.74 77.71 1.879 10.70 18.84 28.6 29.1
11295.03 77.95 77.92 1.879 10.72 19.96 28.7 29.3
11300.02 78.47 78.25 1.879 10.64 19.29 28.6 29.2
11305.00 78.25 78.13 1.879 10.86 20.43 28.5 29.2
11310.11 78.18 78.10 1.879 10.75 19.41 28.7 29.1
11315.06 77.56 78.08 1.879 10.68 20.07 28.6 29.2
11320.02 78.34 77.94 1.879 10.68 19.10 28.7 29.0
11325.14 78.19 77.99 1.879 10.73 19.87 28.6 29.1
11330.11 78.16 78.02 1.879 10.86 19.77 28.7 29.1
11335.06 78.14 78.03 1.879 10.69 18.97 28.6 29.2
11340.01 78.12 78.02 1.879 10.69 19.75 28.6 29.2
11345.09 77.66 77.81 1.879 10.64 18.80 28.6 29.2
11350.11 78.17 78.04 1.879 10.83 19.98 28.7 28.9
11355.08 78.11 78.03 1.879 10.69 19.01 28.7 29.1
11360.02 78.09 78.04 1.879 10.68 19.56 28.5 29.3
11365.12 78.00 77.99 1.879 10.71 19.09 28.8 29.2
11370.10 78.01 78.02 1.879 10.74 20.23 28.6 29.3
11375.07 77.96 78.57 1.879 10.77 19.00 28.5 29.2
11380.05 77.91 78.33 1.879 10.69 19.13 28.6 29.1
11385.14 77.97 77.67 1.879 10.75 19.60 28.9 29.3
11390.09 78.02 77.86 1.879 10.72 19.11 28.6 29.2
11395.07 78.02 77.95 1.879 10.82 20.31 28.8 29.3
11400.04 78.03 78.00 1.879 10.71 18.58 28.7 29.3
11405.13 77.47 78.03 1.879 10.71 19.18 28.7 29.2
11410.07 78.40 78.07 1.879 10.75 19.85 28.6 29.2
11415.04 77.58 78.06 1.879 10.68 20.24 28.5 29.4
11420.03 77.67 77.93 1.879 10.83 19.59 28.5 29.2
11425.00 78.37 77.99 1.879 10.72 19.11 28.6 29.5
11430.08 78.20 78.03 1.879 10.70 20.34 28.7 29.1
11435.04 78.10 77.46 1.879 10.68 18.82 28.7 29.2
11440.02 77.48 78.35 1.879 10.71 20.14 28.5 29.1
11445.13 77.67 78.27 1.879 10.75 20.20 28.7 29.0
11450.08 77.78 78.20 1.879 10.73 19.11 28.5 29.1
11455.00 77.69 77.34 1.879 10.72 19.62 28.6 29.1
11460.12 77.88 77.69 1.879 10.73 18.98 28.7 29.1
11465.09 77.96 77.90 1.879 10.61 18.82 28.7 29.0
11470.05 77.99 77.95 1.879 10.73 19.81 28.7 29.1
11475.00 78.01 77.98 1.879 10.72 19.14 28.6 29.3
11480.10 78.03 78.00 1.879 10.71 19.24 28.6 29.4
11485.07 78.05 78.04 1.879 10.70 17.96 28.6 29.1
11490.05 77.98 77.98 1.879 10.69 19.60 28.8 29.2
11495.00 77.96 77.95 1.879 10.72 19.56 28.8 29.1
11500.09 78.00 78.02 1.879 10.63 19.25 28.7 29.1
11505.06 78.02 78.07 1.879 10.74 18.93 28.8 29.0
11510.04 78.01 78.06 1.879 10.67 18.34 28.7 29.1
11515.00 78.01 78.07 1.879 10.69 19.94 28.5 29.1
11520.09 78.01 78.06 1.879 10.71 19.03 28.5 29.4
11525.04 78.03 78.07 1.879 10.68 19.16 28.6 29.1
11530.02 78.02 78.06 1.879 10.74 18.51 28.5 29.1
11535.13 78.05 78.07 1.879 10.65 18.52 28.7 29.0
11540.08 78.05 78.10 1.879 10.73 19.59 28.6 29.0
11545.03 77.99 78.02 1.879 10.67 18.63 28.6 29.1
11550.02 77.97 77.98 1.879 10.75 19.22 28.7 29.3
11555.14 78.00 78.04 1.879 10.68 18.46 28.7 29.1
11560.09 78.03 78.04 1.879 10.67 19.28 28.7 28.9
11565.04 78.03 78.04 1.879 10.77 19.25 28.8 29.1
11570.14 78.04 78.03 1.879 10.74 19.67 28.6 29.3
11575.12 78.07 78.04 1.879 10.76 19.65 28.6 29.1
11580.08 78.07 78.04 1.879 10.69 18.00 28.7 29.3
11585.04 78.03 78.01 1.879 10.73 19.92 28.7 29.5
11590.13 78.03 78.01 1.879 10.79 19.28 28.6 29.4
11595.10 78.07 78.06 1.879 10.87 20.24 28.5 29.1
11600.12 77.86 77.72 1.879 10.66 18.48 28.7 29.4
11605.08 77.72 77.80 1.879 10.72 19.87 28.6 29.2
11610.03 77.87 77.88 1.879 10.75 19.36 28.7 29.1
11615.13 77.58 77.99 1.879 10.68 19.20 28.5 29.3
11620.11 78.23 78.02 1.879 10.76 18.58 28.5 29.2
11625.08 78.17 78.01 1.879 10.66 18.46 28.7 29.0
11630.03 78.13 78.03 1.879 10.68 19.98 28.6 29.4
11635.13 78.06 77.99 1.879 10.75 18.94 28.5 29.2
11640.09 78.06 78.03 1.879 10.74 19.98 28.6 29.5
11645.07 77.99 77.96 1.879 10.68 18.20 28.8 29.4
11650.05 77.94 77.94 1.879 10.65 18.55 28.6 29.2
11655.13 78.04 77.99 1.879 10.72 19.57 28.7 29.3
11660.09 78.05 78.05 1.879 10.68 19.17 28.7 29.4
11665.07 78.02 78.01 1.879 10.85 20.67 28.7 29.3
11670.05 77.95 77.92 1.879 10.71 19.01 28.9 29.2
11675.00 77.95 77.93 1.879 10.69 19.33 28.7 29.1
11680.09 78.02 78.00 1.879 10.78 19.41 28.6 29.3
11685.07 78.04 78.02 1.879 10.73 19.57 28.7 29.2
11690.04 78.04 78.02 1.879 10.77 20.20 28.5 29.1
11695.00 78.04 77.47 1.879 10.81 19.54 28.7 29.2
11700.09 77.08 77.66 1.879 10.67 19.42 28.6 29.2
11705.05 77.60 77.68 1.879 10.69 19.19 28.7 29.2
11710.03 77.84 78.11 1.879 10.64 19.68 28.6 29.3
11715.00 77.89 78.09 1.879 10.71 19.86 28.6 29.1
11720.09 77.96 78.08 1.879 10.65 18.98 28.8 29.2
11725.11 78.46 77.93 1.879 10.74 19.25 28.7 29.2
11730.08 78.23 78.00 1.879 10.73 19.83 28.7 29.2
11735.06 78.14 77.97 1.879 10.78 19.66 28.7 29.1
11740.03 78.07 77.93 1.879 10.66 18.64 28.6 29.2
11745.13 77.97 77.92 1.879 10.74 19.40 28.6 29.3
11750.09 78.02 77.99 1.879 10.72 19.32 28.6 29.3
11755.06 78.03 78.01 1.879 10.78 20.36 28.7 29.2
11760.04 78.01 77.99 1.879 10.70 18.60 28.5 29.3
11765.13 78.02 78.03 1.879 10.71 19.35 28.5 29.0
11770.07 78.04 78.05 1.879 10.81 19.97 28.5 29.0
11775.05 77.96 77.97 1.879 10.68 19.62 28.6 29.2
11780.03 77.99 78.00 1.879 10.78 19.61 28.6 29.1
11785.00 77.99 78.02 1.879 10.76 19.09 28.5 29.0
11790.08 78.04 78.06 1.879 10.68 19.81 28.6 29.0
11795.04 78.03 78.04 1.879 10.68 18.74 28.5 29.1
11800.02 77.48 78.03 1.879 10.73 19.79 28.6 29.1
11805.13 77.67 78.07 1.879 10.77 20.16 28.6 28.9
11810.08 77.80 78.04 1.879 10.67 18.61 28.6 29.1
11815.02 77.53 77.63 1.879 10.75 19.79 28.6 29.1
11820.02 78.14 78.17 1.879 10.69 19.23 28.5 29.1
11825.13 77.54 77.72 1.879 10.69 20.05 28.5 29.0
11830.09 77.71 78.41 1.879 10.82 19.88 28.5 29.1
11835.04 78.27 77.71 1.879 10.71 19.37 28.7 29.2
11840.14 77.74 78.12 1.879 10.74 19.60 28.5 29.1
11845.11 77.72 78.11 1.879 10.66 20.04 28.4 29.0
11850.13 78.25 78.49 1.879 10.76 19.72 28.5 29.2
11855.07 78.20 78.18 1.879 10.69 19.22 28.7 29.3
11860.02 78.67 78.04 1.879 10.78 19.77 28.5 29.2
11865.02 77.67 77.95 1.879 10.67 19.22 28.6 29.5
11870.13 77.80 77.99 1.879 10.79 20.18 28.7 29.1
11875.09 77.86 78.01 1.879 10.74 19.25 28.8 29.2
11880.04 77.95 78.01 1.879 10.67 19.62 28.7 29.3
11885.14 77.98 77.46 1.879 10.74 19.19 28.6 29.1
11890.12 77.98 78.35 1.879 10.72 19.99 28.6 29.1
11895.09 77.99 78.22 1.879 10.75 20.08 28.5 29.2
11900.04 77.99 78.16 1.879 10.72 18.69 28.6 28.9
11905.13 78.00 78.10 1.879 10.72 19.77 28.6 29.3
11910.10 77.63 77.71 1.879 10.67 18.95 28.7 29.3
11915.08 78.34 77.90 1.879 10.66 19.72 28.7 29.3
11920.04 78.21 77.91 1.879 10.81 20.08 28.6 29.2
11925.13 78.09 77.38 1.879 10.71 19.18 28.6 29.1
11930.09 77.69 78.35 1.879 10.70 19.39 28.6 29.1
11935.07 77.88 78.19 1.879 10.69 18.55 28.6 29.3
11940.04 77.89 78.09 1.879 10.70 19.96 28.5 29.4
11945.00 77.89 78.05 1.879 10.74 19.25 28.6 29.4
11950.09 78.01 78.04 1.879 10.64 18.67 28.6 29.4
11955.06 78.02 77.46 1.879 10.72 19.33 28.6 29.1
11960.03 78.03 77.79 1.879 10.63 18.79 28.7 29.3
11965.00 78.00 77.86 1.879 10.71 19.58 28.7 29.2
11970.08 77.45 77.94 1.879 10.66 18.79 28.5 29.2
11975.11 78.34 78.53 1.879 10.79 19.75 28.6 29.1
11980.08 78.20 77.92 1.879 10.64 19.41 28.5 29.2
11985.06 78.10 78.51 1.879 10.77 20.08 28.4 29.3
11990.01 78.03 77.74 1.879 10.72 19.38 28.6 29.2
11995.10 78.04 78.10 1.879 10.66 19.80 28.5 29.2
12000.08 78.04 78.07 1.879 10.66 18.60 28.6 29.2
12005.05 77.99 77.96 1.879 10.68 20.21 28.6 29.2
12010.03 77.94 77.97 1.879 10.68 19.84 28.6 29.0
12015.11 78.04 78.03 1.879 10.69 19.00 28.5 29.2
12020.07 77.66 78.05 1.879 10.71 19.71 28.6 29.3
12025.04 77.88 77.48 1.879 10.65 18.10 28.6 29.1
12030.02 77.95 77.66 1.879 10.68 18.85 28.6 29.1
12035.10 77.43 77.80 1.879 10.69 19.74 28.6 29.3
12040.04 78.38 77.95 1.879 10.68 18.35 28.6 29.1
12045.03 77.63 78.01 1.879 10.76 20.15 28.5 29.3
12050.00 77.77 78.05 1.879 10.81 19.49 28.6 29.2
12055.10 77.86 78.05 1.879 10.72 18.76 28.7 29.2
12060.04 77.97 78.07 1.879 10.70 19.65 28.5 29.1
12065.00 78.02 78.07 1.879 10.75 19.41 28.5 29.3
12070.12 77.63 78.02 1.879 10.67 19.57 28.8 29.1
12075.09 78.34 77.45 1.879 10.79 20.56 28.4 29.1
12080.04 78.19 77.61 1.879 10.78 19.29 28.5 29.0
12085.14 78.12 77.87 1.879 10.68 18.89 28.5 29.1
12090.10 77.71 77.98 1.879 10.71 19.40 28.6 29.1
12095.08 76.89 77.65 1.879 10.78 19.99 28.6 29.0
12100.13 76.88 78.00 1.879 10.66 18.47 28.6 29.0
12105.07 78.38 78.06 1.879 10.72 19.43 28.6 29.0
12110.03 78.18 77.69 1.879 10.73 19.54 28.6 29.1
12115.00 78.13 77.32 1.879 10.68 18.84 28.5 29.0
12120.12 77.55 77.58 1.879 10.66 19.38 28.6 29.4
12125.06 77.72 78.35 1.879 10.72 19.49 28.5 29.1
12130.02 77.77 77.49 1.879 10.69 18.78 28.4 29.0
12135.00 77.36 77.83 1.879 10.80 20.09 28.4 29.2
12140.11 77.56 77.93 1.879 10.69 18.35 28.6 29.1
12145.07 77.71 77.99 1.879 10.66 18.75 28.7 29.3
12150.02 77.84 78.02 1.879 10.74 19.75 28.5 29.1
12155.00 77.90 77.91 1.879 10.70 19.27 28.6 29.1
12160.11 78.00 78.04 1.879 10.73 20.24 28.7 29.2
12165.08 78.02 78.03 1.879 10.74 20.35 28.8 29.3
12170.03 78.03 78.03 1.879 10.75 19.33 28.5 29.3
12175.12 77.66 77.64 1.879 10.66 19.12 28.5 29.3
12180.09 77.87 77.31 1.879 10.69 19.52 28.6 29.3
12185.06 77.93 77.71 1.879 10.74 18.88 28.6 29.4
12190.02 77.39 77.82 1.879 10.72 19.13 28.7 29.1
12195.11 77.76 77.90 1.879 10.73 19.81 28.5 29.2
12200.07 77.92 77.98 1.879 10.74 18.95 28.7 29.4
12205.05 77.84 77.86 1.879 10.71 20.23 28.8 29.2
12210.04 77.81 77.81 1.879 10.79 20.02 28.6 29.2
12215.00 77.84 77.85 1.879 10.70 18.80 28.5 29.0
12220.09 77.96 77.60 1.879 10.77 19.78 28.4 29.0
12225.11 77.72 77.53 1.879 10.66 18.74 28.5 28.9
12230.08 77.83 77.24 1.879 10.65 19.67 28.4 28.9
12235.04 77.87 77.48 1.879 10.69 20.00 28.5 29.1
12240.14 77.55 78.24 1.879 10.68 18.71 28.6 29.5
12245.10 77.26 77.52 1.879 10.70 19.83 28.4 29.2
12250.07 77.69 77.83 1.879 10.79 20.59 28.6 29.2
12255.04 77.83 77.92 1.879 10.78 19.74 28.6 29.1
12260.13 77.90 77.98 1.879 10.70 19.00 28.6 29.3
12265.08 77.60 77.05 1.879 10.70 19.75 28.6 29.1
12270.05 77.78 78.13 1.879 10.71 18.43 28.7 28.8
12275.04 77.87 77.51 1.879 10.64 18.09 28.7 28.9
12280.14 77.95 77.51 1.879 10.69 19.20 28.5 29.1
12285.06 77.45 77.84 1.879 10.74 19.91 28.8 29.1
12290.04 77.79 77.58 1.879 10.66 18.31 28.6 29.0
12295.02 77.96 77.84 1.879 10.64 19.44 28.6 29.2
12300.12 77.96 78.01 1.879 10.70 19.76 28.6 29.2
12305.04 77.14 77.52 1.879 10.74 19.57 28.5 29.0
12310.14 77.67 77.82 1.879 10.69 18.93 28.6 29.2
12315.11 77.88 77.93 1.879 10.73 20.34 28.7 29.2
12320.08 77.94 77.99 1.879 10.79 20.35 28.5 29.1
12325.03 77.41 77.99 1.879 10.74 19.35 28.5 29.3
12330.12 78.37 77.61 1.879 10.68 18.99 28.6 29.3
12335.09 77.84 77.30 1.879 10.72 19.76 28.6 29.2
12340.06 77.93 77.70 1.879 10.72 18.54 28.5 29.1
12345.02 77.38 77.70 1.879 10.66 19.11 28.4 29.4
12350.14 78.13 78.28 1.879 10.72 19.70 28.6 29.3
12355.10 77.52 77.57 1.879 10.71 18.95 28.4 29.3
12360.07 77.81 77.84 1.879 10.73 20.10 28.5 29.2
12365.05 77.83 77.87 1.879 10.79 19.83 28.4 29.1
12370.01 77.83 77.87 1.879 10.69 18.99 28.4 29.1
12375.10 77.94 77.95 1.879 10.76 20.02 28.5 29.1
12380.08 78.01 77.64 1.879 10.66 18.85 28.4 29.2
12385.05 77.97 77.21 1.879 10.68 19.82 28.5 29.0
12390.02 77.93 77.48 1.879 10.66 19.57 28.6 29.1
12395.11 77.64 77.68 1.879 10.70 19.22 28.6 29.0
12400.07 77.87 77.90 1.879 10.66 19.18 28.5 29.4
12405.04 77.42 78.00 1.879 10.76 19.94 28.5 29.0
12410.01 77.62 78.02 1.879 10.77 19.49 28.6 29.1
12415.10 77.78 78.01 1.879 10.69 18.86 28.6 29.1
12420.04 77.94 78.06 1.879 10.69 19.81 28.6 29.2
12425.02 78.03 77.46 1.879 10.67 18.86 28.4 29.3
12430.14 77.45 77.38 1.879 10.62 18.92 28.5 29.1
12435.09 77.67 77.60 1.879 10.68 19.89 28.6 29.2
12440.04 77.31 77.75 1.879 10.74 19.20 28.5 29.3
12445.14 77.69 77.33 1.879 10.73 19.34 28.5 29.2
12450.11 77.90 78.37 1.879 10.79 20.07 28.6 29.2
12455.08 77.93 78.26 1.879 10.79 19.57 28.7 29.4
12460.03 77.97 78.19 1.879 10.64 18.96 28.7 29.1
12465.12 78.07 77.57 1.879 10.67 19.31 28.5 29.0
12470.06 76.88 77.65 1.879 10.59 18.51 28.6 29.2
12475.13 77.47 77.64 1.879 10.79 20.23 28.6 29.1
12480.08 78.26 77.78 1.879 10.71 19.01 28.6 29.2
12485.03 78.12 78.47 1.879 10.69 19.38 28.6 29.0
12490.13 78.08 77.87 1.879 10.75 19.39 28.5 29.1
12495.11 77.69 77.42 1.879 10.65 18.57 28.5 29.0
12500.08 77.79 77.61 1.879 10.69 19.30 28.7 29.2
12505.02 77.89 77.76 1.879 10.74 19.67 28.5 29.2
12510.12 77.90 77.84 1.879 10.71 18.86 28.6 29.3
12515.09 77.98 77.95 1.879 10.71 19.91 28.6 29.1
12520.07 78.00 78.01 1.879 10.79 19.55 28.5 29.0
12525.03 77.45 77.95 1.879 10.69 19.10 28.3 29.2
12530.14 78.25 77.90 1.879 10.75 19.77 28.4 29.3
12535.10 77.58 77.58 1.879 10.74 19.12 28.6 29.0
12540.07 77.81 77.83 1.879 10.67 19.74 28.4 29.1
12545.05 77.25 77.82 1.879 10.77 20.34 28.6 29.1
12550.15 77.45 77.81 1.879 10.72 19.16 28.4 29.2
12555.10 77.80 77.37 1.879 10.71 18.94 28.4 29.1
12560.07 77.94 78.35 1.879 10.69 18.56 28.6 29.2
12565.05 77.91 77.50 1.879 10.64 19.02 28.6 29.1
12570.02 77.89 77.67 1.879 10.72 19.64 28.4 29.0
12575.10 78.02 77.81 1.879 10.75 19.43 28.6 29.1
12580.06 78.00 77.96 1.879 10.71 19.61 28.7 29.1
12585.04 77.47 78.01 1.879 10.80 20.19 28.5 29.2
12590.02 77.63 77.44 1.879 10.77 19.68 28.5 29.2
12595.10 77.77 77.64 1.879 10.71 20.30 28.6 29.1
12600.11 78.08 77.84 1.879 10.77 19.43 28.6 29.2
12605.08 78.05 77.97 1.879 10.71 19.52 28.5 29.0
12610.06 78.05 77.61 1.879 10.82 20.42 28.7 29.2
12615.02 77.48 77.61 1.879 10.80 19.79 28.5 29.0
12620.09 77.42 77.84 1.879 10.67 18.61 28.5 29.0
12625.06 77.81 77.43 1.879 10.73 19.58 28.6 29.0
12630.04 77.97 77.77 1.879 10.68 18.32 28.4 29.0
12635.01 77.97 77.38 1.879 10.72 18.45 28.4 29.1
12640.06 77.54 77.70 1.879 10.72 19.35 28.4 29.2
12645.02 77.80 77.88 1.879 10.75 19.93 28.4 29.1
12650.14 77.56 77.99 1.879 10.62 18.50 28.4 28.9
12655.11 77.72 78.01 1.879 10.66 19.07 28.6 29.1
12660.05 77.83 77.47 1.879 10.75 19.76 28.6 29.2
12665.02 77.19 77.63 1.879 10.67 19.01 28.6 29.0
12670.02 78.18 78.39 1.879 10.72 19.39 28.6 29.3
12675.13 78.07 77.62 1.879 10.71 18.69 28.6 29.1
12680.11 78.07 77.76 1.879 10.65 18.67 28.6 29.1
12685.04 77.48 77.86 1.879 10.70 19.85 28.6 29.0
12690.00 77.80 77.59 1.879 10.76 19.74 28.6 29.3
12695.11 77.87 77.23 1.879 10.67 19.40 28.6 28.9
12700.10 77.31 77.45 1.879 10.69 19.87 28.4 29.2
12705.05 77.52 78.20 1.879 10.73 19.74 28.7 29.1
12710.00 77.75 78.03 1.879 10.67 18.87 28.4 29.1
12715.13 77.31 77.41 1.879 10.73 20.04 28.5 29.2
12720.10 76.71 77.49 1.879 10.66 18.56 28.5 28.8
12725.14 77.42 77.38 1.879 10.79 19.98 28.5 29.1
12730.08 78.14 78.18 1.879 10.69 18.76 28.5 29.0
12735.05 78.10 77.53 1.879 10.71 19.79 28.5 29.1
12740.02 78.06 77.81 1.879 10.75 19.21 28.7 29.0
12745.13 78.09 77.90 1.879 10.74 18.52 28.4 29.0
12750.08 78.09 77.97 1.879 10.71 19.53 28.6 29.2
12755.02 77.47 77.59 1.879 10.73 19.87 28.5 29.3
12760.00 77.41 77.88 1.879 10.67 18.72 28.5 29.2
12765.11 77.61 77.41 1.879 10.66 19.47 28.7 29.2
12770.07 77.76 77.57 1.879 10.68 19.95 28.5 29.1
12775.03 77.81 77.66 1.879 10.73 19.17 28.6 29.2
12780.00 77.93 77.86 1.879 10.71 19.47 28.7 28.9
12785.12 77.99 77.96 1.879 10.77 19.74 28.5 29.0
12790.09 77.96 77.96 1.879 10.73 18.79 28.4 29.1
12795.05 77.92 77.92 1.879 10.71 19.29 28.4 29.0
12800.00 77.91 77.91 1.879 10.76 19.86 28.6 29.0
12805.13 77.35 77.54 1.879 10.70 19.19 28.5 29.0
12810.11 77.59 77.82 1.879 10.69 19.97 28.6 29.2
12815.07 77.71 77.83 1.879 10.76 19.63 28.5 29.1
12820.03 77.40 77.84 1.879 10.72 18.73 28.5 29.1
12825.14 77.62 77.38 1.879 10.68 19.27 28.6 28.9
12830.10 77.47 77.73 1.879 10.75 19.25 28.5 29.2
12835.08 77.68 77.84 1.879 10.71 18.91 28.6 29.1
12840.02 77.80 77.91 1.879 10.68 19.07 28.4 29.1
12845.12 77.93 77.95 1.879 10.76 19.26 28.5 29.2
12850.12 77.74 77.76 1.879 10.71 19.75 28.5 29.1
12855.10 77.86 77.57 1.879 10.75 20.29 28.6 29.1
12860.05 77.99 77.80 1.879 10.79 19.86 28.4 29.0
12865.13 77.73 77.95 1.879 10.69 18.71 28.7 29.0
12870.08 77.91 77.49 1.879 10.73 19.93 28.7 29.1
12875.05 77.40 77.75 1.879 10.82 19.69 28.5 29.0
12880.02 77.63 77.88 1.879 10.72 19.05 28.7 29.0
12885.12 77.76 77.94 1.879 10.68 19.36 28.4 29.0
12890.05 77.91 77.67 1.879 10.75 20.05 28.5 29.2
12895.03 77.58 77.31 1.879 10.66 18.17 28.6 29.3
12900.01 77.77 77.76 1.879 10.67 18.89 28.3 29.1
12905.10 77.95 77.76 1.879 10.65 19.45 28.5 29.2
12910.02 77.54 78.03 1.879 10.72 19.73 28.6 29.0
12915.13 77.79 78.03 1.879 10.72 19.21 28.8 29.2
12920.10 77.93 77.64 1.879 10.69 19.92 28.7 29.2
12925.08 77.93 77.76 1.879 10.73 20.23 28.5 29.0
12930.01 77.62 77.84 1.879 10.73 19.30 28.5 29.2
12935.12 77.29 77.36 1.879 10.70 19.17 28.4 29.1
12940.09 77.74 77.75 1.879 10.73 20.02 28.5 29.0
12945.05 77.81 77.85 1.879 10.78 19.03 28.6 29.1
12950.01 77.84 77.88 1.879 10.72 19.21 28.4 29.1
12955.09 77.96 77.98 1.879 10.70 20.08 28.5 28.9
12960.07 77.99 77.64 1.879 10.76 19.16 28.4 29.1
12965.03 77.80 77.48 1.879 10.70 18.21 28.4 29.0
12970.14 77.80 77.42 1.879 10.74 20.45 28.5 28.9
12975.13 77.52 77.96 1.879 10.72 18.91 28.5 29.2
12980.08 77.84 78.04 1.879 10.65 19.51 28.5 29.3
12985.06 77.35 77.46 1.879 10.79 19.40 28.5 28.9
12990.03 77.58 77.67 1.879 10.76 18.70 28.5 29.0
12995.12 77.74 77.82 1.879 10.69 19.00 28.3 29.0
13000.06 77.71 77.89 1.000 11.00 10.88 28.7 29.2
13005.02 77.40 77.26 1.000 11.39 1.21 29.2 29.2
13010.11 77.12 76.86 1.000 11.41 0.14 29.3 29.1
13015.07 76.86 76.14 1.000 11.39 0.01 29.3 29.2
13020.15 75.66 75.66 1.000 11.37 -0.00 29.4 29.2
13025.12 73.71 74.19 1.000 11.35 -0.00 29.3 29.2
13030.09 72.97 73.28 1.000 11.33 -0.00 29.3 29.2
13035.04 73.02 72.69 1.000 11.31 -0.01 29.3 29.0
13040.12 71.48 71.68 1.000 11.29 -0.00 29.3 29.1
13045.08 70.57 70.09 1.000 11.28 0.00 29.3 29.0
13050.04 69.51 70.09 1.000 11.25 0.00 29.2 29.2
13055.11 68.35 68.58 1.000 11.24 0.00 29.3 29.1
13060.08 67.60 67.21 1.000 11.22 0.00 29.3 29.0
13065.04 67.10 67.21 1.000 11.20 0.00 29.4 28.9
13070.11 65.88 65.93 1.000 11.18 0.01 29.5 29.1
13075.08 65.15 65.22 1.000 11.16 0.01 29.4 29.0
13080.03 64.67 64.71 1.000 11.14 0.02 29.3 29.2
13085.11 63.12 63.12 1.000 11.13 0.01 29.4 29.1
13090.09 63.12 62.56 1.000 11.11 0.01 29.4 29.2
13095.02 62.17 62.16 1.000 11.09 0.02 29.4 29.1
13100.14 61.54 61.13 1.000 11.07 0.02 29.3 29.0
13105.09 60.78 61.13 1.000 11.10 0.02 29.3 29.1
13110.02 59.76 59.81 1.000 11.14 0.02 29.4 29.1
13115.13 59.76 59.81 1.000 11.15 0.02 29.3 29.1
13120.04 58.63 58.44 1.000 11.16 0.01 29.3 29.1
13125.01 58.63 57.79 1.000 11.16 0.00 29.4 29.1
13130.07 57.46 57.38 1.000 11.17 0.00 29.3 29.1
13135.02 56.54 56.36 1.000 11.17 0.01 29.4 29.0
13140.13 55.91 56.36 1.000 11.17 0.01 29.3 29.2
13145.05 55.46 55.07 1.000 11.17 0.01 29.3 29.1
13150.03 55.14 55.07 1.000 11.17 0.01 29.3 29.2
13155.11 54.06 54.31 1.000 11.17 0.01 29.3 29.0
13160.08 54.06 54.31 1.000 11.17 0.01 29.3 29.1
13165.00 52.76 53.12 1.000 11.17 0.02 29.3 29.0
13170.11 52.76 53.12 1.000 11.17 0.01 29.4 29.1
13175.02 51.85 51.93 1.000 11.17 0.01 29.2 29.0
13180.00 51.85 51.93 1.000 11.17 0.01 29.3 29.0
13185.05 50.93 51.05 1.000 11.17 0.01 29.3 29.0
13190.03 50.93 51.05 1.000 11.17 0.01 29.4 29.0
13195.08 49.97 50.02 1.000 11.17 0.01 29.3 29.0
13200.05 49.97 50.02 1.000 11.17 0.01 29.3 29.0
13205.11 48.91 48.95 1.000 11.17 0.01 29.4 29.0
13210.09 48.91 48.95 1.000 11.17 0.00 29.4 29.1
13215.01 48.31 48.08 1.000 11.17 0.01 29.2 29.1
13220.11 47.90 48.08 1.000 11.17 0.01 29.3 29.1
13225.12 47.35 47.26 1.000 11.17 0.01 29.3 29.2
13230.07 47.19 47.26 1.000 11.17 0.01 29.4 28.9
13235.00 46.77 46.82 1.000 11.17 0.01 29.3 29.0
13240.09 46.30 46.33 1.000 11.17 0.01 29.3 29.0
13245.02 46.30 45.82 1.000 11.17 0.01 29.2 28.9
13250.08 45.16 45.48 1.000 11.17 0.00 29.2 29.1
13255.03 45.16 45.48 1.000 11.17 0.01 29.3 29.0
13260.08 44.30 44.46 1.000 11.17 0.01 29.3 29.1
13265.06 44.30 44.46 1.000 11.17 0.01 29.3 29.1
13270.11 43.89 43.99 1.000 11.17 0.01 29.4 29.0
13275.05 43.62 43.70 1.000 11.17 0.01 29.3 29.1
13280.14 43.62 43.15 1.000 11.17 0.01 29.5 29.0
13285.06 42.58 42.78 1.000 11.17 0.01 29.4 29.0
13290.02 42.58 42.78 1.000 11.17 0.01 29.3 28.9
13295.07 42.24 41.91 1.000 11.17 0.01 29.3 29.2
13300.03 42.01 41.91 1.000 11.17 0.01 29.3 29.0
13305.11 42.01 41.44 1.000 11.17 0.01 29.3 29.0
13310.03 41.02 41.15 1.000 11.17 0.00 29.3 29.1
13315.14 41.02 41.15 1.000 11.17 0.01 29.4 29.1
13320.04 40.56 40.40 1.000 11.17 0.02 29.4 29.1
13325.00 40.26 40.40 1.000 11.17 0.02 29.5 29.0
13330.06 40.26 39.85 1.000 11.17 0.02 29.4 29.0
13335.13 39.45 39.50 1.000 11.17 0.02 29.5 29.1
13340.05 39.45 39.50 1.000 11.17 0.02 29.3 29.0
13345.11 39.02 39.13 1.000 11.17 0.02 29.3 29.0
13350.14 38.70 38.79 1.000 11.17 0.03 29.4 28.8
13355.07 38.70 38.79 1.000 11.17 0.02 29.3 29.1
13360.13 38.31 37.90 1.000 11.17 0.02 29.4 29.0
13365.05 37.93 37.90 1.000 11.17 0.02 29.3 28.9
13370.13 37.93 37.52 1.000 11.17 0.02 29.2 29.1
13375.05 37.11 37.24 1.000 11.17 0.01 29.2 29.1
13380.01 37.11 37.24 1.000 11.17 0.01 29.3 29.0
13385.06 37.11 36.81 1.000 11.17 0.01 29.2 29.0
13390.13 36.46 36.51 1.000 11.17 0.01 29.2 29.0
13395.08 36.46 36.51 1.000 11.17 0.01 29.3 28.9
13400.00 36.04 36.07 1.000 11.17 0.01 29.4 29.1
13405.08 35.76 35.66 1.000 11.17 0.01 29.2 29.0
13410.02 35.76 35.66 1.000 11.17 0.01 29.2 29.0
13415.07 35.22 35.28 1.000 11.17 0.01 29.3 28.9
13420.01 34.86 35.02 1.000 11.17 0.01 29.3 29.1
13425.09 34.86 35.02 1.000 11.17 0.01 29.3 29.0
13430.00 34.51 34.34 1.000 11.17 0.01 29.4 29.0
13435.11 34.16 34.34 1.000 11.17 0.01 29.3 29.0
13440.03 34.16 34.34 1.000 11.17 0.02 29.3 29.0
13445.08 33.82 33.94 1.000 11.17 0.01 29.3 29.1
13450.03 33.58 33.58 1.000 11.17 0.01 29.3 29.0
13455.00 33.58 33.58 1.000 11.17 0.01 29.3 29.1
13460.05 33.10 33.20 1.000 11.17 0.02 29.3 29.1
13465.00 32.80 32.85 1.000 11.17 0.01 29.2 29.1
13470.09 32.80 32.85 1.000 11.17 0.01 29.3 29.0
13475.02 32.80 32.43 1.000 11.17 0.01 29.5 28.9
13480.08 32.05 32.16 1.000 11.17 0.02 29.3 28.9
13485.04 32.05 32.16 1.000 11.17 0.01 29.3 29.0
13490.09 32.05 31.79 1.000 11.17 0.02 29.3 29.0
13495.03 31.41 31.54 1.000 11.17 0.01 29.3 29.1
13500.13 31.41 31.54 1.000 11.17 0.01 29.3 28.9
13505.04 31.41 31.54 1.000 11.17 0.01 29.3 29.0
13510.09 31.04 30.84 1.000 11.17 0.02 29.3 29.0
13515.04 30.79 30.84 1.000 11.17 0.01 29.4 29.1
13520.12 30.79 30.84 1.000 11.17 0.01 29.4 29.1
13525.02 30.45 30.56 1.000 11.17 0.02 29.4 29.0
13530.10 30.23 30.21 1.000 11.17 0.01 29.3 29.2
13535.01 30.23 30.21 1.000 11.17 0.01 29.3 29.1
13540.07 30.23 29.82 1.000 11.17 0.01 29.3 29.1
13545.14 29.84 29.56 1.000 11.17 0.01 29.3 28.9
13550.08 29.47 29.56 1.000 11.17 0.01 29.3 28.9
13555.02 29.47 29.56 1.000 11.17 0.01 29.4 28.9
13560.07 29.15 29.21 1.000 11.17 0.01 29.3 28.9
13565.14 28.93 28.99 1.000 11.17 0.01 29.3 28.9
13570.07 28.93 28.99 1.000 11.17 0.02 29.3 28.9
13575.14 28.93 28.99 1.000 11.17 0.02 29.2 29.0
13580.05 28.56 28.33 1.000 11.17 0.02 29.3 29.0
13585.00 28.24 28.33 1.000 11.17 0.02 29.4 28.9
13590.07 28.24 28.33 1.000 11.17 0.02 29.4 28.9
13595.13 28.24 28.09 1.000 11.17 0.02 29.3 28.8
13600.13 27.71 27.82 1.000 11.17 0.02 29.3 28.9
13605.08 27.71 27.82 1.000 11.18 0.02 29.3 28.9
13610.00 27.71 27.82 1.000 11.17 0.02 29.3 29.0
13615.05 27.37 27.43 1.000 11.17 0.03 29.3 29.0
13620.01 27.08 27.12 1.000 11.17 0.01 29.2 29.0
13625.08 27.08 27.12 1.000 11.17 0.01 29.3 29.0
13630.00 27.08 27.12 1.000 11.17 0.01 29.3 29.0
13635.06 26.77 26.80 1.000 11.17 0.02 29.4 29.0
13640.02 26.55 26.57 1.000 11.17 0.02 29.4 29.1
13645.10 26.55 26.57 1.000 11.17 0.01 29.3 29.0
13650.02 26.55 26.57 1.000 11.17 0.01 29.4 28.9
13655.06 26.21 26.05 1.000 11.17 0.01 29.3 28.9
13660.03 25.93 26.05 1.000 11.17 0.01 29.4 29.0
13665.10 25.93 26.05 1.000 11.17 0.02 29.3 29.1
13670.02 25.93 26.05 1.000 11.17 0.02 29.3 29.1
13675.07 25.62 25.46 1.000 11.17 0.01 29.3 29.0
13680.02 25.41 25.46 1.000 11.17 0.01 29.3 29.0
13685.09 25.41 25.46 1.000 11.17 0.02 29.3 29.0
13690.01 25.41 25.46 1.000 11.17 0.01 29.4 29.0
13695.07 25.09 25.13 1.000 11.17 0.01 29.4 29.1
13700.02 24.83 24.85 1.000 11.17 0.01 29.3 29.0
13705.10 24.83 24.85 1.000 11.17 0.01 29.3 28.9
13710.02 24.83 24.85 1.000 11.17 0.01 29.5 28.9
13715.07 24.53 24.62 1.000 11.17 0.01 29.3 28.9
13720.02 24.29 24.39 1.000 11.17 0.01 29.2 29.0
13725.13 24.29 24.39 1.000 11.17 0.01 29.3 29.0
13730.04 24.29 24.39 1.000 11.17 0.01 29.4 29.0
13735.09 24.29 24.08 1.000 11.17 0.01 29.3 29.0
13740.03 23.77 23.87 1.000 11.17 0.01 29.3 29.0
13745.12 23.77 23.87 1.000 11.17 0.02 29.3 28.9
13750.03 23.77 23.87 1.000 11.17 0.01 29.5 29.0
13755.08 23.77 23.87 1.000 11.17 0.01 29.4 29.0
13760.00 23.47 23.30 1.000 11.17 0.01 29.3 28.9
13765.09 23.26 23.30 1.000 11.17 0.01 29.3 29.1
13770.02 23.26 23.30 1.000 11.17 0.01 29.2 29.1
13775.07 23.26 23.30 1.000 11.17 0.01 29.3 29.1
13780.13 23.26 23.00 1.000 11.17 0.01 29.3 29.0
13785.05 22.70 22.77 1.000 11.17 0.01 29.3 28.9
13790.00 22.70 22.77 1.000 11.17 0.01 29.3 29.0
13795.05 22.70 22.77 1.000 11.17 0.01 29.2 29.0
13800.12 22.70 22.77 1.000 11.17 0.01 29.2 28.9
13805.02 22.42 22.21 1.000 11.17 0.01 29.3 28.9
13810.13 22.18 22.21 1.000 11.17 0.01 29.3 29.0
13815.04 22.18 22.21 1.000 11.17 0.01 29.3 29.0
13820.09 22.18 22.21 1.000 11.17 0.02 29.4 29.0
13825.01 22.18 21.96 1.000 11.17 0.02 29.3 28.9
13830.08 21.88 21.74 1.000 11.17 0.03 29.3 28.9
13835.02 21.66 21.74 1.000 11.17 0.02 29.3 29.0
13840.09 21.66 21.74 1.000 11.17 0.03 29.3 29.0
13845.01 21.66 21.74 1.000 11.17 0.02 29.4 28.8
13850.13 21.66 21.44 1.000 11.17 0.03 29.3 29.0
13855.05 21.18 21.24 1.000 11.17 0.03 29.3 28.8
13860.15 21.18 21.24 1.000 11.17 0.02 29.3 28.9
13865.05 21.18 21.24 1.000 11.17 0.03 29.4 28.9
13870.12 21.18 21.24 1.000 11.17 0.01 29.4 29.0
13875.02 20.92 20.96 1.000 11.17 0.01 29.3 29.1
13880.11 20.71 20.74 1.000 11.17 0.01 29.2 28.9
13885.05 20.71 20.74 1.000 11.17 0.01 29.3 28.9
13890.12 20.71 20.74 1.000 11.17 0.02 29.3 29.0
13895.03 20.71 20.74 1.000 11.17 0.01 29.3 28.9
13900.08 20.71 20.48 1.000 11.17 0.01 29.4 29.0
13905.02 20.20 20.25 1.000 11.17 0.01 29.4 28.9
13910.11 20.20 20.25 1.000 11.17 0.01 29.4 29.0
13915.02 20.20 20.25 1.000 11.17 0.01 29.4 29.0
13920.07 20.20 20.25 1.000 11.17 0.02 29.4 29.0
13925.13 20.20 19.97 1.000 11.17 0.01 29.4 28.9
13930.06 19.94 19.75 1.000 11.17 0.01 29.3 28.9
13935.00 19.72 19.75 1.000 11.17 0.01 29.4 29.1
13940.06 19.72 19.75 1.000 11.17 0.01 29.3 29.0
13945.12 19.72 19.75 1.000 11.17 0.01 29.2 29.1
13950.03 19.72 19.48 1.000 11.17 0.01 29.3 28.9
13955.10 19.47 19.30 1.000 11.17 0.01 29.4 29.0
13960.04 19.26 19.30 1.000 11.17 0.01 29.3 29.0
13965.11 19.26 19.30 1.000 11.17 0.01 29.2 28.9
13970.02 19.26 19.30 1.000 11.17 0.01 29.3 28.8
13975.13 19.26 19.30 1.000 11.17 0.01 29.3 28.8
13980.04 18.99 19.04 1.000 11.17 0.01 29.2 28.9
13985.12 18.76 18.82 1.000 11.17 0.01 29.2 29.0
13990.06 18.76 18.82 1.000 11.17 0.01 29.2 28.9
13995.12 18.76 18.82 1.000 11.17 0.01 29.3 29.0
14000.03 18.76 18.82 1.000 11.17 0.01 29.3 28.9
14005.08 18.76 18.57 1.000 11.17 0.01 29.3 28.9
14010.01 18.49 18.38 1.000 11.17 0.01 29.3 29.1
14015.09 18.33 18.38 1.000 11.17 0.01 29.4 28.9
14020.02 18.33 18.38 1.000 11.17 0.01 29.3 29.0
14025.07 18.33 18.38 1.000 11.17 0.01 29.4 29.0
14030.12 18.33 18.38 1.000 11.17 0.01 29.2 29.0
14035.03 18.33 18.12 1.000 11.17 0.01 29.4 28.9
14040.09 18.07 17.90 1.000 11.17 0.01 29.3 28.9
14045.03 17.86 17.90 1.000 11.17 0.01 29.2 28.9
14050.12 17.86 17.90 1.000 11.17 0.02 29.2 28.9
14055.03 17.86 17.90 1.000 11.17 0.01 29.3 29.0
14060.08 17.86 17.90 1.000 11.17 0.01 29.2 28.9
14065.13 17.62 17.63 1.000 11.17 0.01 29.3 29.0
14070.07 17.62 17.45 1.000 11.17 0.02 29.3 28.9
14075.00 17.42 17.45 1.000 11.17 0.03 29.4 28.9
14080.06 17.42 17.45 1.000 11.17 0.03 29.3 28.9
14085.13 17.42 17.45 1.000 11.17 0.02 29.3 29.1
14090.04 17.42 17.45 1.000 11.18 0.03 29.4 29.1
14095.09 17.14 17.19 1.000 11.18 0.02 29.2 29.2
14100.13 17.14 16.99 1.000 11.18 0.03 29.4 29.0
14105.05 16.95 16.99 1.000 11.17 0.02 29.4 29.0
14110.13 16.95 16.99 1.000 11.18 0.02 29.4 29.0
14115.04 16.95 16.99 1.000 11.17 0.03 29.3 28.9
14120.09 16.95 16.99 1.000 11.17 0.01 29.4 29.0
14125.01 16.95 16.76 1.000 11.17 0.02 29.3 28.9
14130.08 16.68 16.56 1.000 11.17 0.01 29.3 28.9
14135.02 16.47 16.56 1.000 11.17 0.01 29.2 29.0
14140.09 16.47 16.56 1.000 11.17 0.01 29.3 29.0
14145.00 16.47 16.56 1.000 11.17 0.02 29.3 29.0
14150.06 16.47 16.56 1.000 11.17 0.02 29.4 29.0
14155.11 16.47 16.27 1.000 11.17 0.01 29.3 29.0
14160.04 16.21 16.08 1.000 11.17 0.02 29.3 29.0
14165.13 16.04 16.08 1.000 11.17 0.01 29.3 29.0
14170.05 16.04 16.08 1.000 11.17 0.01 29.4 29.1
14175.12 16.04 16.08 1.000 11.17 0.01 29.4 29.1
14180.02 16.04 16.08 1.000 11.17 0.01 29.3 29.0
14185.07 16.04 16.08 1.000 11.17 0.01 29.4 29.0
14190.13 16.04 15.84 1.000 11.17 0.01 29.3 28.9
14195.06 15.78 15.62 1.000 11.17 0.01 29.3 29.1
14200.00 15.57 15.62 1.000 11.17 0.01 29.3 29.1
14205.06 15.57 15.62 1.000 11.17 0.01 29.3 29.0
14210.12 15.57 15.62 1.000 11.18 0.01 29.3 28.9
14215.03 15.57 15.62 1.000 11.17 0.01 29.3 29.0
14220.08 15.57 15.62 1.000 11.17 0.01 29.4 29.0
14225.01 15.31 15.35 1.000 11.17 0.01 29.2 28.9
14230.09 15.31 15.15 1.000 11.18 0.01 29.3 28.9
14235.02 15.13 15.15 1.000 11.17 0.01 29.3 28.9
14240.08 15.13 15.15 1.000 11.17 0.01 29.5 28.9
14245.00 15.13 15.15 1.000 11.17 0.01 29.2 28.8
14250.05 15.13 15.15 1.000 11.17 0.01 29.2 28.8
14255.11 15.13 14.92 1.000 11.17 0.01 29.3 29.0
14260.04 14.88 14.92 1.000 11.17 0.01 29.3 29.0
14265.11 14.88 14.71 1.000 11.17 0.01 29.3 28.8
14270.04 14.66 14.71 1.000 11.17 0.01 29.2 28.9
14275.12 14.66 14.71 1.000 11.17 0.01 29.3 29.0
14280.02 14.66 14.71 1.000 11.17 0.01 29.3 29.0
14285.07 14.66 14.71 1.000 11.17 0.01 29.3 29.0
14290.13 14.66 14.71 1.000 11.17 0.02 29.3 29.0
14295.04 14.39 14.44 1.000 11.17 0.01 29.2 29.0
14300.13 14.39 14.24 1.000 11.17 0.01 29.3 29.1
14305.05 14.21 14.24 1.000 11.17 0.01 29.2 28.9
14310.13 14.21 14.24 1.000 11.17 0.02 29.3 28.9
14315.04 14.21 14.24 1.000 11.17 0.01 29.4 29.0
14320.09 14.21 14.24 1.000 11.17 0.02 29.3 28.9
14325.02 14.21 14.24 1.000 11.18 0.03 29.4 28.9
14330.07 14.21 13.98 1.000 11.17 0.02 29.3 29.0
14335.00 13.94 13.77 1.000 11.17 0.02 29.3 29.1
14340.09 13.73 13.77 1.000 11.17 0.02 29.4 28.9
14345.03 13.73 13.77 1.000 11.18 0.03 29.3 29.0
14350.13 13.73 13.77 1.000 11.17 0.02 29.3 29.0
14355.04 13.73 13.77 1.000 11.18 0.03 29.3 29.0
14360.10 13.73 13.77 1.000 11.17 0.02 29.4 29.0
14365.02 13.73 13.77 1.000 11.18 0.03 29.3 29.0
14370.07 13.73 13.51 1.000 11.17 0.02 29.3 29.0
14375.00 13.47 13.31 1.000 11.17 0.01 29.3 29.0
14380.08 13.26 13.31 1.000 11.17 0.02 29.3 28.9
14385.01 13.26 13.31 1.000 11.17 0.01 29.4 28.9
14390.07 13.26 13.31 1.000 11.17 0.01 29.4 28.9
14395.12 13.26 13.31 1.000 11.17 0.02 29.3 28.9
14400.03 13.26 13.31 1.000 11.17 0.01 29.3 29.0
14405.09 13.26 13.31 1.000 11.17 0.01 29.3 29.0
14410.02 13.26 13.07 1.000 11.17 0.01 29.3 29.1
14415.09 13.01 12.86 1.000 11.17 0.01 29.3 29.0
14420.02 12.81 12.86 1.000 11.17 0.02 29.3 29.0
14425.09 12.81 12.86 1.000 11.17 0.02 29.3 28.9
14430.01 12.81 12.86 1.000 11.17 0.01 29.3 28.9
14435.07 12.81 12.86 1.000 11.17 0.01 29.2 28.9
14440.13 12.81 12.86 1.000 11.17 0.01 29.2 28.9
14445.04 12.81 12.86 1.000 11.17 0.02 29.4 29.0
14450.10 12.81 12.58 1.000 11.17 0.01 29.2 28.9
14455.02 12.54 12.58 1.000 11.17 0.02 29.4 29.0
14460.09 12.34 12.38 1.000 11.17 0.02 29.3 28.8
14465.03 12.34 12.38 1.000 11.17 0.02 29.3 29.0
14470.09 12.34 12.38 1.000 11.17 0.02 29.4 29.0
14475.02 12.34 12.38 1.000 11.17 0.01 29.4 28.7
14480.07 12.34 12.38 1.000 11.17 0.01 29.3 29.0
14485.12 12.34 12.38 1.000 11.17 0.02 29.3 28.9
14490.03 12.34 12.38 1.000 11.17 0.01 29.3 28.9
14495.09 12.34 12.12 1.000 11.17 0.01 29.4 28.9
14500.02 12.08 11.92 1.000 11.17 0.01 29.3 29.0
14505.08 11.87 11.92 1.000 11.17 0.01 29.3 28.8
14510.14 11.87 11.92 1.000 11.17 0.02 29.3 28.9
14515.05 11.87 11.92 1.000 11.17 0.01 29.1 29.0
14520.12 11.87 11.92 1.000 11.17 0.01 29.4 29.0
14525.03 11.87 11.92 1.000 11.17 0.01 29.4 29.0
14530.08 11.87 11.92 1.000 11.17 0.01 29.3 29.0
14535.00 11.87 11.92 1.000 11.17 0.01 29.2 28.9
14540.05 11.87 11.66 1.000 11.17 0.01 29.2 28.9
14545.12 11.60 11.46 1.000 11.17 0.01 29.3 28.7
14550.06 11.40 11.46 1.000 11.17 0.01 29.4 28.9
14555.12 11.40 11.46 1.000 11.17 0.01 29.3 28.9
14560.03 11.40 11.46 1.000 11.17 0.01 29.4 29.0
14565.08 11.40 11.46 1.000 11.17 0.01 29.3 28.9
14570.00 11.40 11.46 1.000 11.17 0.02 29.3 29.0
14575.05 11.40 11.46 1.000 11.17 0.02 29.2 28.9
14580.12 11.40 11.46 1.000 11.17 0.03 29.2 28.9
14585.03 11.40 11.19 1.000 11.17 0.03 29.3 28.9
14590.11 11.13 11.19 1.000 11.17 0.03 29.3 28.9
14595.03 11.13 10.98 1.000 11.17 0.03 29.2 28.9
14600.13 10.90 10.98 1.000 11.17 0.02 29.4 29.0
14605.06 10.90 10.98 1.000 11.17 0.02 29.2 29.0
14610.12 10.90 10.98 1.000 11.17 0.03 29.4 29.1
14615.03 10.90 10.98 1.000 11.17 0.02 29.3 29.1
14620.09 10.90 10.98 1.000 11.17 0.02 29.3 29.1
14625.02 10.90 10.98 1.000 11.17 0.01 29.3 29.1
14630.06 10.90 10.98 1.000 11.17 0.01 29.2 28.9
14635.12 10.90 10.68 1.000 11.17 0.01 29.4 28.8
14640.04 10.64 10.68 1.000 11.17 0.01 29.3 28.9
14645.12 10.64 10.47 1.000 11.17 0.01 29.4 28.9
14650.03 10.44 10.47 1.000 11.17 0.01 29.4 29.0
14655.10 10.44 10.47 1.000 11.17 0.01 29.3 29.1
14660.01 10.44 10.47 1.000 11.17 0.01 29.3 29.0
14665.06 10.44 10.47 1.000 11.17 0.01 29.3 28.9
14670.12 10.44 10.47 1.000 11.17 0.01 29.3 28.9
14675.03 10.44 10.47 1.000 11.17 0.01 29.3 29.1
14680.08 10.44 10.47 1.000 11.17 0.01 29.4 29.0
14685.00 10.44 10.20 1.000 11.17 0.01 29.4 29.0
14690.06 10.14 10.20 1.000 11.17 0.01 29.4 28.9
14695.14 10.14 9.98 1.000 11.17 0.01 29.4 29.0
14700.05 9.93 9.98 1.000 11.17 0.01 29.4 29.0
14705.12 9.93 9.98 1.000 11.17 0.02 29.5 28.9
14710.03 9.93 9.98 1.000 11.17 0.01 29.3 28.9
14715.08 9.93 9.98 1.000 11.17 0.01 29.3 29.0
14720.01 9.93 9.98 1.000 11.17 0.01 29.3 28.9
14725.12 9.93 9.98 1.000 11.17 0.01 29.4 29.1
14730.03 9.93 9.98 1.000 11.17 0.01 29.4 29.0
14735.08 9.93 9.98 1.000 11.17 0.02 29.3 28.9
14740.14 9.93 9.70 1.000 11.17 0.00 29.4 29.0
14745.06 9.65 9.70 1.000 11.17 0.02 29.3 29.0
14750.13 9.65 9.49 1.000 11.17 0.01 29.3 28.9
14755.05 9.44 9.49 1.000 11.17 0.01 29.3 29.0
14760.12 9.44 9.49 1.000 11.17 0.02 29.2 28.9
14765.04 9.44 9.49 1.000 11.17 0.01 29.3 28.9
14770.09 9.44 9.49 1.000 11.17 0.01 29.4 28.9
14775.01 9.44 9.49 1.000 11.17 0.01 29.3 29.0
14780.06 9.44 9.49 1.000 11.17 0.02 29.3 28.9
14785.13 9.44 9.49 1.000 11.17 0.01 29.3 29.0
14790.03 9.44 9.49 1.000 11.18 0.01 29.3 29.0
14795.09 9.44 9.49 1.000 11.17 0.01 29.3 29.0
14800.02 9.44 9.19 1.000 11.17 0.01 29.3 29.2
14805.09 9.14 9.19 1.000 11.17 0.01 29.4 28.9
14810.02 9.14 8.94 1.000 11.17 0.01 29.3 29.1
14815.09 8.89 8.94 1.000 11.17 0.01 29.2 28.9
14820.02 8.89 8.94 1.000 11.17 0.03 29.3 29.0
14825.07 8.89 8.94 1.000 11.17 0.03 29.3 29.0
14830.13 8.89 8.94 1.000 11.18 0.02 29.4 29.0
14835.04 8.89 8.94 1.000 11.17 0.02 29.5 29.1
14840.10 8.89 8.94 1.000 11.17 0.03 29.3 28.9
14845.01 8.89 8.94 1.000 11.17 0.02 29.3 29.0
14850.12 8.89 8.94 1.000 11.18 0.02 29.3 29.0
14855.04 8.89 8.94 1.000 11.18 0.02 29.4 28.9
14860.09 8.89 8.65 1.000 11.18 0.02 29.3 28.9
14865.02 8.60 8.65 1.000 11.17 0.02 29.3 29.0
14870.09 8.60 8.43 1.000 11.17 0.01 29.3 29.0
14875.01 8.60 8.43 1.000 11.17 0.01 29.3 28.9
14880.05 8.36 8.43 1.000 11.17 0.01 29.3 28.8
14885.13 8.36 8.43 1.000 11.17 0.01 29.3 28.9
14890.04 8.36 8.43 1.000 11.17 0.02 29.4 29.0
14895.10 8.36 8.43 1.000 11.17 0.01 29.5 29.0
14900.00 8.36 8.43 1.000 11.17 0.01 29.2 28.9
14905.05 8.36 8.43 1.000 11.17 0.01 29.3 28.9
14910.11 8.36 8.43 1.000 11.17 0.02 29.3 29.0
14915.02 8.36 8.43 1.000 11.17 0.02 29.4 29.0
14920.08 8.36 8.43 1.000 11.17 0.01 29.4 29.1
14925.14 8.36 8.10 1.000 11.17 0.01 29.4 29.0
14930.06 8.36 8.10 1.000 11.17 0.01 29.5 29.1
14935.12 8.03 8.10 1.000 11.17 0.01 29.3 29.0
14940.04 8.03 7.84 1.000 11.17 0.01 29.3 29.0
14945.11 8.03 7.84 1.000 11.17 0.02 29.3 29.1
14950.01 7.77 7.84 1.000 11.17 0.01 29.3 29.0
14955.08 7.77 7.84 1.000 11.17 0.01 29.3 29.0
14960.14 7.77 7.84 1.000 11.17 0.01 29.4 29.0
14965.05 7.77 7.84 1.000 11.17 0.01 29.3 29.0
14970.10 7.77 7.84 1.000 11.17 0.01 29.3 29.0
14975.11 7.77 7.84 1.000 11.17 0.01 29.3 29.1
14980.02 7.77 7.84 1.000 11.17 0.01 29.4 29.0
14985.08 7.77 7.84 1.000 11.17 0.01 29.4 28.9
14990.13 7.77 7.84 1.000 11.17 0.01 29.4 29.0
14995.04 7.77 7.84 1.000 11.17 0.01 29.4 29.0
15000.12 7.77 7.51 1.000 11.17 0.01 29.3 29.0
15005.04 7.77 7.51 1.000 11.17 0.02 29.4 29.2
15010.10 7.44 7.51 1.000 11.17 0.01 29.3 29.0
15015.02 7.44 7.27 1.000 11.17 0.01 29.3 29.0
15020.08 7.20 7.27 1.000 11.17 0.01 29.4 29.0
15025.01 7.20 7.27 1.000 11.17 0.01 29.3 29.0
15030.06 7.20 7.27 1.000 11.17 0.01 29.3 29.1
15035.11 7.20 7.27 1.000 11.17 0.01 29.3 29.0
15040.02 7.20 7.27 1.000 11.17 0.01 29.2 29.1
15045.07 7.20 7.27 1.000 11.17 0.01 29.4 28.9
15050.13 7.20 7.27 1.000 11.17 0.01 29.4 29.1
15055.03 7.20 7.27 1.000 11.17 0.01 29.2 28.9
15060.09 7.20 7.27 1.000 11.17 0.01 29.3 29.0
15065.00 7.20 7.27 1.000 11.17 0.01 29.3 29.1
15070.05 7.20 7.27 1.000 11.18 0.02 29.4 29.0
15075.12 7.20 7.27 1.000 11.18 0.02 29.3 29.0
15080.03 7.20 6.91 1.000 11.17 0.02 29.3 29.1
15085.11 7.20 6.91 1.000 11.17 0.02 29.3 29.0
15090.02 6.83 6.91 1.000 11.17 0.02 29.4 29.0
15095.08 6.83 6.61 1.000 11.17 0.02 29.3 29.0
15100.02 6.83 6.61 1.000 11.17 0.02 29.4 29.2
15105.07 6.54 6.61 1.000 11.18 0.02 29.4 29.0
15110.00 6.54 6.61 1.000 11.18 0.02 29.4 29.0
15115.05 6.54 6.61 1.000 11.18 0.02 29.4 29.0
15120.10 6.54 6.61 1.000 11.17 0.01 29.2 28.9
15125.02 6.54 6.61 1.000 11.17 0.01 29.3 29.0
15130.07 6.54 6.61 1.000 11.18 0.01 29.4 29.1
15135.13 6.54 6.61 1.000 11.17 0.01 29.4 29.0
15140.04 6.54 6.61 1.000 11.17 0.01 29.4 28.9
15145.09 6.54 6.61 1.000 11.17 0.01 29.3 29.0
15150.02 6.54 6.61 1.000 11.17 0.01 29.3 29.0
15155.07 6.54 6.61 1.000 11.17 0.01 29.3 29.1
15160.12 6.54 6.61 1.000 11.17 0.01 29.3 29.0
15165.03 6.54 6.61 1.000 11.17 0.01 29.3 28.9
15170.09 6.54 6.24 1.000 11.17 0.01 29.2 29.0
15175.02 6.54 6.24 1.000 11.17 0.01 29.3 29.0
15180.07 6.17 6.24 1.000 11.17 0.01 29.2 28.9
15185.01 6.17 6.24 1.000 11.17 0.01 29.2 29.1
15190.06 6.17 5.96 1.000 11.17 0.01 29.3 29.0
15195.13 6.17 5.96 1.000 11.17 0.01 29.4 28.9
15200.03 5.90 5.96 1.000 11.17 0.01 29.4 29.0
15205.11 5.90 5.96 1.000 11.17 0.01 29.3 29.0
15210.02 5.90 5.96 1.000 11.18 0.01 29.3 29.0
15215.07 5.90 5.96 1.000 11.17 0.01 29.4 29.1
15220.13 5.90 5.96 1.000 11.17 0.01 29.4 29.1
15225.12 5.90 5.96 1.000 11.18 0.01 29.4 29.0
15230.03 5.90 5.96 1.000 11.17 0.01 29.3 28.8
15235.09 5.90 5.96 1.000 11.17 0.00 29.4 29.0
15240.14 5.90 5.96 1.000 11.17 0.01 29.3 29.0
15245.05 5.90 5.96 1.000 11.17 0.01 29.4 29.0
15250.11 5.90 5.96 1.000 11.17 0.01 29.4 29.0
15255.02 5.90 5.96 1.000 11.17 0.01 29.3 29.0
15260.08 5.90 5.96 1.000 11.17 0.01 29.1 29.0
15265.00 5.90 5.96 1.000 11.18 0.01 29.4 28.9
15270.05 5.90 5.96 1.000 11.17 0.01 29.3 29.1
15275.12 5.90 5.52 1.000 11.17 0.01 29.3 29.0
15280.03 5.90 5.52 1.000 11.17 0.01 29.2 29.0
15285.09 5.90 5.52 1.000 11.17 0.02 29.3 29.0
15290.02 5.45 5.52 1.000 11.17 0.01 29.3 29.0
15295.09 5.45 5.52 1.000 11.18 0.01 29.2 29.0
15300.00 5.45 5.17 1.000 11.17 0.01 29.4 29.0
15305.06 5.45 5.17 1.000 11.17 0.01 29.3 29.0
15310.11 5.45 5.17 1.000 11.17 0.01 29.4 29.1
15315.01 5.08 5.17 1.000 11.17 0.01 29.4 28.9
15320.09 5.08 5.17 1.000 11.17 0.02 29.2 28.9
15325.00 5.08 5.17 1.000 11.17 0.03 29.4 29.0
15330.05 5.08 5.17 1.000 11.17 0.02 29.5 29.0
15335.12 5.08 5.17 1.000 11.18 0.02 29.5 29.0
15340.03 5.08 5.17 1.000 11.18 0.02 29.4 29.1
15345.08 5.08 5.17 1.000 11.17 0.02 29.4 29.1
15350.01 5.08 5.17 1.000 11.17 0.02 29.5 29.0
15355.06 5.08 5.17 1.000 11.17 0.02 29.5 29.1
15360.12 5.08 5.17 1.000 11.17 0.02 29.4 29.1
15365.03 5.08 5.17 1.000 11.17 0.02 29.3 29.0
15370.09 5.08 5.17 1.000 11.18 0.02 29.4 29.0
15375.01 5.08 5.17 1.000 11.17 0.01 29.4 29.0
15380.06 5.08 5.17 1.000 11.17 0.01 29.3 29.1
15385.12 5.08 5.17 1.000 11.17 0.01 29.2 29.1
15390.03 5.08 5.17 1.000 11.17 0.01 29.3 29.1
15395.08 5.08 5.17 1.000 11.17 0.01 29.2 29.1
15400.00 5.08 5.17 1.000 11.17 0.01 29.4 29.2
15405.05 5.08 4.73 1.000 11.18 0.01 29.3 29.0
15410.13 5.08 4.73 1.000 11.17 0.01 29.5 29.0
15415.04 5.08 4.73 1.000 11.17 0.01 29.3 29.0
15420.10 4.64 4.73 1.000 11.17 0.01 29.3 29.1
15425.03 4.64 4.73 1.000 11.18 0.01 29.3 29.2
15430.08 4.64 4.73 1.000 11.17 0.01 29.3 29.1
15435.00 4.64 4.40 1.000 11.18 0.01 29.3 29.0
15440.05 4.64 4.40 1.000 11.17 0.01 29.4 29.1
15445.11 4.64 4.40 1.000 11.17 0.01 29.4 29.1
15450.02 4.31 4.40 1.000 11.17 0.02 29.3 29.0
15455.08 4.31 4.40 1.000 11.17 0.01 29.3 29.0
15460.14 4.31 4.40 1.000 11.17 0.00 29.5 29.0
15465.04 4.31 4.40 1.000 11.17 0.01 29.3 29.1
15470.10 4.31 4.40 1.000 11.17 0.01 29.3 29.0
15475.11 4.31 4.40 1.000 11.17 0.02 29.3 29.0
15480.02 4.31 4.40 1.000 11.18 0.01 29.4 29.0
15485.07 4.31 4.40 1.000 11.17 0.01 29.5 29.1
15490.13 4.31 4.40 1.000 11.17 0.01 29.3 29.0
15495.03 4.31 4.40 1.000 11.17 0.01 29.3 29.0
15500.09 4.31 4.40 1.000 11.17 0.01 29.3 29.1
15505.02 4.31 4.40 1.000 11.17 0.01 29.3 29.1
15510.07 4.31 4.40 1.000 11.18 0.01 29.4 29.1
15515.13 4.31 4.40 1.000 11.17 0.01 29.3 29.0
15520.04 4.31 4.40 1.000 11.17 0.01 29.4 29.0
15525.10 4.31 4.40 1.000 11.17 0.01 29.6 29.2
15530.01 4.31 4.40 1.000 11.17 0.01 29.5 29.1
15535.06 4.31 4.40 1.000 11.17 0.01 29.4 29.0
15540.13 4.31 4.40 1.000 11.17 0.01 29.3 29.1
15545.03 4.31 4.40 1.000 11.17 0.01 29.4 29.1
15550.08 4.31 4.40 1.000 11.17 0.01 29.2 29.1
15555.00 4.31 4.40 1.000 11.17 0.01 29.3 29.0
15560.04 4.31 4.40 1.000 11.17 0.01 29.4 29.1
15565.10 4.31 4.40 1.000 11.17 0.01 29.4 29.1
15570.02 4.31 4.40 1.000 11.17 0.02 29.3 29.2
15575.07 4.31 4.40 1.000 11.18 0.02 29.4 29.1
15580.13 4.31 4.40 1.000 11.18 0.03 29.5 29.0
15585.03 4.31 4.40 1.000 11.18 0.02 29.4 29.0
15590.09 4.31 4.40 1.000 11.18 0.02 29.3 29.1
15595.01 4.31 4.40 1.000 11.18 0.02 29.3 29.2
15600.13 4.31 4.40 1.000 11.18 0.02 29.3 29.0
15605.04 4.31 3.75 1.000 11.18 0.03 29.4 28.9
15610.11 4.31 3.75 1.000 11.17 0.02 29.5 29.1
15615.02 4.31 3.75 1.000 11.17 0.03 29.4 29.1
15620.08 4.31 3.75 1.000 11.18 0.01 29.4 29.0
15625.14 4.31 3.75 1.000 11.17 0.01 29.4 29.0
