% data log for sensor has 3125 values (interval=5ms)
% data format:
% 1   Time (ms)
% 2,3 (a,b) calculated rotations per second
% 4   ESC PW (ms)
% 5   Battery voltage (V)
% 6   Battery current (A)
% 7   Motor temp (deg C)
% 8   ESC temp (deg C)
0.00 13.38 13.36 1.097 17.13 0.17 28.3 28.0
10.05 13.39 13.37 1.097 17.14 0.16 28.5 28.2
15.00 13.39 13.38 1.097 17.13 0.17 28.3 27.7
20.07 13.39 13.38 1.097 17.13 0.17 28.4 27.9
25.01 13.39 13.38 1.097 17.13 0.16 28.5 27.9
30.07 13.39 13.38 1.097 17.13 0.16 28.4 27.9
35.14 13.39 13.38 1.097 17.14 0.16 28.4 27.7
40.06 13.39 13.38 1.097 17.14 0.17 28.4 27.8
45.12 13.39 13.39 1.097 17.14 0.17 28.4 27.9
50.05 13.38 13.39 1.097 17.14 0.16 28.4 27.8
55.14 13.37 13.39 1.097 17.14 0.16 28.3 27.9
60.06 13.37 13.39 1.097 17.14 0.16 28.3 28.0
65.14 13.37 13.39 1.097 17.14 0.16 28.5 27.8
70.05 13.37 13.39 1.097 17.14 0.16 28.5 27.8
75.11 13.37 13.39 1.097 17.14 0.16 28.4 27.8
80.04 13.37 13.39 1.097 17.14 0.16 28.5 27.8
85.10 13.38 13.38 1.097 17.14 0.16 28.4 27.9
90.12 13.38 13.39 1.097 17.14 0.16 28.6 28.0
95.04 13.39 13.39 1.097 17.14 0.17 28.5 27.6
100.12 13.39 13.39 1.097 17.14 0.17 28.5 27.9
105.04 13.39 13.39 1.097 17.13 0.16 28.4 27.9
110.10 13.39 13.39 1.097 17.14 0.16 28.4 27.9
115.01 13.39 13.39 1.097 17.13 0.16 28.4 27.8
120.07 13.39 13.39 1.097 17.14 0.17 28.4 27.9
125.01 13.39 13.38 1.097 17.14 0.16 28.4 28.1
130.10 13.39 13.38 1.097 17.14 0.16 28.5 28.0
135.04 13.39 13.38 1.097 17.14 0.17 28.6 28.2
140.10 13.39 13.38 1.097 17.14 0.17 28.6 28.1
145.02 13.39 13.38 1.097 17.14 0.17 28.3 27.9
150.08 13.39 13.38 1.097 17.14 0.16 28.3 27.8
155.13 13.39 13.38 1.097 17.14 0.17 28.4 28.1
160.07 13.38 13.38 1.097 17.14 0.17 28.3 28.1
165.01 13.38 13.39 1.097 17.13 0.16 28.4 27.9
170.08 13.37 13.39 1.097 17.14 0.17 28.4 28.0
175.01 13.37 13.39 1.097 17.14 0.17 28.4 27.8
180.07 13.37 13.39 1.097 17.14 0.17 28.5 28.0
185.13 13.37 13.39 1.097 17.14 0.18 28.4 27.9
190.05 13.37 13.39 1.097 17.14 0.17 28.5 27.9
195.12 13.37 13.38 1.097 17.14 0.18 28.5 27.9
200.06 13.38 13.37 1.097 17.14 0.17 28.5 27.9
205.00 13.37 13.37 1.097 17.14 0.18 28.3 27.8
210.08 13.37 13.37 1.097 17.14 0.18 28.4 28.0
215.13 13.37 13.37 1.097 17.14 0.18 28.4 27.8
220.05 13.37 13.37 1.097 17.14 0.19 28.5 27.8
225.11 13.37 13.37 1.097 17.14 0.18 28.4 28.1
230.04 13.37 13.38 1.097 17.14 0.18 28.6 28.0
235.12 13.38 13.38 1.097 17.14 0.17 28.4 27.9
240.05 13.38 13.39 1.097 17.14 0.16 28.3 28.0
245.13 13.39 13.39 1.097 17.14 0.17 28.3 27.7
250.07 13.39 13.39 1.097 17.14 0.16 28.4 27.7
255.14 13.39 13.39 1.097 17.14 0.17 28.4 28.1
260.05 13.39 13.39 1.097 17.13 0.17 28.5 28.0
265.12 13.39 13.39 1.097 17.14 0.17 28.4 27.8
270.04 13.39 13.37 1.097 17.14 0.18 28.4 27.8
275.12 13.37 13.37 1.097 17.14 0.17 28.4 28.1
280.06 13.38 13.37 1.097 17.14 0.17 28.6 27.9
285.01 13.38 13.37 1.097 17.14 0.17 28.4 27.6
290.07 13.38 13.37 1.097 17.13 0.17 28.4 27.7
295.00 13.38 13.37 1.097 17.14 0.17 28.4 27.9
300.06 13.38 13.37 1.097 17.14 0.16 28.3 27.9
305.13 13.38 13.39 1.097 17.14 0.17 28.4 27.9
310.06 13.39 13.39 1.097 17.14 0.17 28.3 27.6
315.01 13.39 13.40 1.097 17.14 0.17 28.4 27.8
320.10 13.39 13.40 1.097 17.14 0.18 28.4 27.8
325.01 13.39 13.40 1.097 17.14 0.17 28.4 28.0
330.07 13.39 13.40 1.097 17.14 0.17 28.4 27.9
335.00 13.39 13.40 1.097 17.14 0.16 28.3 27.9
340.12 13.39 13.40 1.097 17.14 0.17 28.5 27.8
345.04 13.39 13.38 1.097 17.14 0.17 28.3 27.9
350.12 13.39 13.39 1.097 17.14 0.16 28.5 27.9
355.06 13.38 13.39 1.097 17.13 0.17 28.5 27.8
360.01 13.38 13.39 1.097 17.14 0.16 28.3 27.7
365.07 13.38 13.39 1.097 17.14 0.17 28.4 27.8
370.13 13.38 13.39 1.097 17.14 0.17 28.3 27.8
375.05 13.38 13.39 1.097 17.14 0.17 28.5 27.9
380.11 13.38 13.39 1.097 17.14 0.17 28.4 27.9
385.04 13.39 13.39 1.097 17.14 0.17 28.4 27.9
390.11 13.39 13.39 1.097 17.14 0.17 28.5 27.8
395.05 13.39 13.39 1.097 17.14 0.17 28.5 27.8
400.11 13.39 13.39 1.097 17.14 0.17 28.4 27.8
405.04 13.39 13.39 1.097 17.14 0.17 28.4 27.9
410.09 13.39 13.39 1.097 17.14 0.16 28.5 27.8
415.00 13.39 13.39 1.097 17.13 0.17 28.5 27.8
420.07 13.38 13.38 1.097 17.14 0.16 28.4 27.8
425.02 13.38 13.37 1.097 17.14 0.18 28.4 28.0
430.09 13.37 13.37 1.097 17.14 0.17 28.5 27.9
435.02 13.37 13.37 1.097 17.14 0.17 28.2 27.9
440.09 13.37 13.37 1.097 17.14 0.17 28.4 27.8
445.00 13.37 13.37 1.097 17.14 0.18 28.3 27.8
450.07 13.37 13.37 1.097 17.14 0.18 28.3 28.1
455.00 13.37 13.38 1.097 17.14 0.18 28.4 27.7
460.07 13.36 13.38 1.097 17.14 0.18 28.5 28.0
465.15 13.37 13.39 1.097 17.14 0.18 28.3 27.9
470.09 13.37 13.39 1.097 17.14 0.18 28.3 28.0
475.01 13.37 13.39 1.097 17.14 0.18 28.4 27.7
480.07 13.37 13.39 1.097 17.14 0.18 28.2 27.9
485.14 13.37 13.39 1.097 17.14 0.16 28.3 27.7
490.05 13.37 13.39 1.097 17.14 0.17 28.2 27.9
495.11 13.38 13.37 1.097 17.13 0.16 28.5 27.9
500.07 13.38 13.37 1.097 17.14 0.17 28.4 27.7
505.01 13.37 13.37 1.097 17.13 0.17 28.4 28.0
510.08 13.37 13.37 1.097 17.14 0.16 28.5 27.9
515.00 13.37 13.37 1.097 17.14 0.17 28.4 28.2
520.05 13.37 13.37 1.097 17.14 0.16 28.6 28.1
525.12 13.37 13.37 1.097 17.14 0.17 28.4 28.1
530.04 13.37 13.36 1.097 17.14 0.16 28.5 27.9
535.11 13.36 13.36 1.097 17.14 0.16 28.4 28.0
540.05 13.38 13.36 1.097 17.14 0.17 28.4 28.0
545.12 13.38 13.36 1.097 17.14 0.16 28.4 27.7
550.04 13.38 13.36 1.097 17.14 0.17 28.4 28.0
555.10 13.38 13.36 1.097 17.14 0.17 28.5 27.7
560.02 13.38 13.36 1.097 17.14 0.17 28.5 27.9
565.08 13.38 13.37 1.097 17.14 0.16 28.5 27.9
570.15 13.37 13.37 1.097 17.14 0.16 28.4 27.9
575.08 13.37 13.38 1.097 17.14 0.16 28.4 27.8
580.02 13.36 13.38 1.097 17.14 0.16 28.5 27.9
585.09 13.36 13.38 1.097 17.14 0.17 28.4 28.0
590.15 13.36 13.38 1.097 17.14 0.16 28.5 27.9
595.07 13.36 13.38 1.097 17.14 0.16 28.4 27.8
600.14 13.36 13.38 1.097 17.14 0.17 28.3 27.7
605.05 13.36 13.39 1.097 17.14 0.17 28.5 28.0
610.13 13.37 13.37 1.097 17.14 0.17 28.5 28.1
615.08 13.38 13.37 1.097 17.14 0.17 28.4 27.7
620.01 13.38 13.37 1.097 17.14 0.16 28.4 28.0
625.07 13.38 13.37 1.097 17.14 0.17 28.4 28.0
630.13 13.38 13.37 1.097 17.14 0.16 28.5 27.9
635.05 13.38 13.37 1.097 17.14 0.17 28.5 27.6
640.11 13.38 13.35 1.097 17.14 0.17 28.4 27.7
645.05 13.39 13.35 1.097 17.14 0.16 28.4 27.6
650.13 13.39 13.37 1.097 17.14 0.16 28.5 27.8
655.05 13.38 13.37 1.097 17.14 0.16 28.3 27.8
660.14 13.38 13.37 1.097 17.14 0.17 28.3 27.7
665.05 13.38 13.37 1.097 17.13 0.17 28.3 27.8
670.11 13.38 13.37 1.097 17.14 0.16 28.4 28.0
675.04 13.38 13.37 1.097 17.14 0.17 28.3 28.0
680.10 13.38 13.38 1.097 17.14 0.16 28.5 28.0
685.04 13.37 13.37 1.097 17.14 0.18 28.4 27.8
690.13 13.38 13.37 1.097 17.14 0.18 28.4 27.8
695.06 13.38 13.37 1.097 17.14 0.18 28.4 28.0
700.12 13.38 13.37 1.097 17.14 0.18 28.6 28.0
705.04 13.38 13.37 1.097 17.14 0.17 28.5 28.0
710.10 13.38 13.37 1.097 17.14 0.18 28.3 27.7
715.16 13.38 13.38 1.097 17.14 0.18 28.4 28.0
720.09 13.37 13.38 1.097 17.14 0.18 28.3 28.0
725.02 13.37 13.39 1.097 17.14 0.19 28.5 27.9
730.09 13.36 13.39 1.097 17.14 0.18 28.4 27.9
735.02 13.36 13.39 1.097 17.14 0.17 28.3 27.8
740.08 13.36 13.39 1.097 17.14 0.16 28.4 27.8
745.00 13.36 13.39 1.097 17.14 0.17 28.4 28.0
750.05 13.36 13.39 1.097 17.14 0.17 28.3 27.9
755.12 13.36 13.39 1.097 17.14 0.17 28.4 27.8
760.05 13.38 13.39 1.097 17.14 0.17 28.4 27.9
765.13 13.38 13.39 1.097 17.14 0.16 28.4 27.8
770.06 13.38 13.39 1.097 17.14 0.17 28.3 27.9
775.12 13.38 13.39 1.097 17.13 0.17 28.4 27.9
780.04 13.38 13.39 1.097 17.14 0.16 28.3 28.0
785.10 13.38 13.39 1.097 17.14 0.16 28.4 27.8
790.02 13.38 13.38 1.097 17.14 0.16 28.6 27.9
795.09 13.39 13.38 1.097 17.14 0.17 28.4 27.7
800.04 13.38 13.37 1.097 17.14 0.17 28.4 27.9
805.13 13.38 13.37 1.097 17.14 0.17 28.5 27.8
810.04 13.38 13.37 1.097 17.13 0.17 28.5 27.7
815.10 13.38 13.37 1.097 17.14 0.16 28.5 27.8
820.04 13.38 13.37 1.097 17.14 0.17 28.4 27.7
825.09 13.38 13.37 1.097 17.14 0.17 28.4 27.5
830.01 13.38 13.38 1.097 17.14 0.16 28.4 27.7
835.09 13.38 13.39 1.097 17.14 0.17 28.6 28.0
840.12 13.41 13.39 1.097 17.14 0.16 28.4 27.8
845.04 13.41 13.39 1.097 17.14 0.17 28.4 27.8
850.11 13.41 13.39 1.097 17.14 0.16 28.3 27.8
855.04 13.41 13.39 1.097 17.14 0.18 28.4 28.0
860.10 13.41 13.39 1.097 17.14 0.17 28.4 27.9
865.01 13.41 13.39 1.097 17.14 0.16 28.4 27.7
870.09 13.40 13.39 1.097 17.14 0.17 28.4 27.8
875.04 13.39 13.38 1.097 17.14 0.16 28.5 27.8
880.12 13.39 13.38 1.097 17.14 0.17 28.4 28.0
885.04 13.39 13.38 1.097 17.14 0.17 28.4 27.9
890.10 13.39 13.38 1.097 17.14 0.16 28.2 27.8
895.02 13.39 13.38 1.097 17.14 0.17 28.3 27.9
900.08 13.39 13.38 1.097 17.14 0.17 28.3 28.0
905.00 13.39 13.38 1.097 17.14 0.17 28.3 27.6
910.09 13.39 13.39 1.097 17.14 0.17 28.3 27.9
915.02 13.39 13.39 1.097 17.14 0.17 28.3 27.9
920.10 13.39 13.39 1.097 17.14 0.17 28.3 27.9
925.01 13.39 13.39 1.097 17.14 0.16 28.4 27.9
930.07 13.39 13.39 1.097 17.14 0.16 28.4 27.9
935.13 13.39 13.39 1.097 17.14 0.16 28.4 27.7
940.05 13.39 13.38 1.097 17.14 0.17 28.5 27.9
945.13 13.38 13.38 1.097 17.14 0.18 28.4 27.8
950.07 13.39 13.37 1.097 17.14 0.17 28.3 27.9
955.01 13.39 13.37 1.097 17.14 0.18 28.5 27.9
960.07 13.39 13.37 1.097 17.14 0.18 28.5 27.7
965.14 13.39 13.37 1.097 17.14 0.19 28.6 27.8
970.06 13.39 13.37 1.097 17.14 0.18 28.5 27.9
975.12 13.39 13.37 1.097 17.14 0.18 28.3 27.9
980.04 13.39 13.38 1.097 17.14 0.17 28.2 27.9
985.13 13.39 13.39 1.097 17.14 0.17 28.3 28.1
990.05 13.39 13.39 1.097 17.14 0.16 28.3 27.9
995.14 13.39 13.39 1.097 17.13 0.16 28.4 27.8
1000.06 13.39 13.39 1.097 17.14 0.16 28.4 27.7
1005.12 13.39 13.39 1.175 17.14 0.17 28.4 27.7
1010.04 13.39 13.39 1.175 17.13 0.20 28.4 27.7
1015.10 13.39 13.39 1.175 17.11 0.41 28.3 27.8
1020.04 13.38 13.39 1.175 17.05 0.78 28.3 27.9
1025.12 13.39 13.39 1.175 17.01 1.25 28.4 28.0
1030.05 13.39 13.39 1.175 17.01 1.78 28.2 27.9
1035.11 13.39 13.39 1.175 17.03 2.18 28.1 27.9
1040.04 13.39 13.39 1.175 17.05 2.18 28.3 27.9
1045.09 13.39 13.39 1.175 17.04 2.27 28.1 27.8
1050.01 13.39 13.76 1.175 17.08 2.01 28.4 27.8
1055.08 13.86 14.14 1.175 17.09 1.93 28.0 28.0
1060.04 14.32 14.14 1.175 17.10 1.96 28.2 27.9
1065.11 14.32 14.14 1.175 17.09 2.08 28.2 27.7
1070.04 14.32 14.14 1.175 17.10 1.86 28.2 27.9
1075.10 14.32 14.14 1.175 17.11 1.74 28.3 27.9
1080.02 15.30 15.08 1.175 17.11 1.67 28.4 27.8
1085.10 16.08 15.89 1.175 17.12 1.66 28.2 27.5
1090.12 16.08 15.89 1.175 17.12 1.60 28.2 27.8
1095.04 16.08 15.89 1.175 17.12 1.45 28.2 27.6
1100.10 16.08 15.89 1.175 17.12 1.47 28.4 28.0
1105.04 16.08 16.92 1.175 17.12 1.43 28.2 27.8
1110.11 17.12 17.72 1.175 17.11 1.40 28.3 27.7
1115.05 17.88 17.72 1.175 17.12 1.35 28.1 28.0
1120.13 17.88 17.72 1.175 17.12 1.31 28.3 28.0
1125.05 17.88 17.72 1.175 17.12 1.29 28.3 27.7
1130.11 18.80 18.61 1.175 17.11 1.26 28.3 28.1
1135.06 19.50 19.29 1.175 17.11 1.21 28.2 28.0
1140.01 19.50 19.29 1.175 17.12 1.15 28.1 27.8
1145.07 19.50 19.29 1.175 17.12 1.15 28.3 27.9
1150.14 19.50 19.29 1.175 17.13 1.08 28.2 27.8
1155.06 20.27 20.73 1.175 17.12 1.06 28.2 27.7
1160.04 20.83 20.73 1.175 17.13 1.03 28.2 27.7
1165.11 20.83 20.73 1.175 17.12 1.03 28.1 27.8
1170.02 20.83 20.73 1.175 17.12 0.98 28.2 27.8
1175.08 21.40 21.34 1.175 17.13 0.96 28.3 28.0
1180.03 21.89 21.78 1.175 17.12 0.97 28.2 28.0
1185.13 21.89 21.78 1.175 17.12 0.94 28.3 28.0
1190.04 21.89 21.78 1.175 17.13 0.93 28.3 27.9
1195.10 21.89 22.28 1.175 17.12 0.91 28.3 28.1
1200.04 22.41 22.67 1.175 17.13 0.91 28.3 27.9
1205.13 22.75 22.67 1.175 17.13 0.86 28.3 27.7
1210.06 22.75 22.67 1.175 17.13 0.86 28.3 27.9
1215.14 22.75 23.03 1.175 17.13 0.84 28.2 28.0
1220.07 23.09 23.34 1.175 17.12 0.87 28.5 27.8
1225.02 23.42 23.34 1.175 17.12 0.80 28.2 27.7
1230.09 23.42 23.34 1.175 17.12 0.82 28.2 27.8
1235.01 23.42 23.34 1.175 17.13 0.81 28.3 28.0
1240.06 23.77 23.92 1.175 17.12 0.78 28.4 27.8
1245.04 23.99 23.92 1.175 17.12 0.77 28.4 27.8
1250.11 23.99 23.92 1.175 17.12 0.75 28.3 27.8
1255.04 23.99 23.92 1.175 17.13 0.76 28.3 27.9
1260.09 24.20 24.34 1.175 17.13 0.73 28.2 27.7
1265.04 24.33 24.34 1.175 17.12 0.74 28.3 27.8
1270.12 24.33 24.34 1.175 17.12 0.72 28.3 27.8
1275.04 24.33 24.34 1.175 17.13 0.70 28.4 27.7
1280.10 24.60 24.76 1.175 17.13 0.70 28.3 27.7
1285.05 24.79 24.76 1.175 17.13 0.73 28.3 27.7
1290.00 24.79 24.76 1.175 17.12 0.69 28.3 27.8
1295.05 24.79 24.76 1.175 17.13 0.68 28.4 27.7
1300.11 24.91 24.98 1.175 17.12 0.67 28.3 27.9
1305.07 25.05 24.98 1.175 17.12 0.67 28.3 28.0
1310.01 25.05 24.98 1.175 17.12 0.69 28.3 27.9
1315.07 25.05 24.98 1.175 17.13 0.66 28.1 27.9
1320.00 25.20 25.28 1.175 17.12 0.64 28.2 27.8
1325.09 25.25 25.28 1.175 17.13 0.66 28.3 27.9
1330.04 25.25 25.28 1.175 17.13 0.63 28.3 27.9
1335.10 25.25 25.36 1.175 17.13 0.63 28.3 27.9
1340.13 25.35 25.42 1.175 17.13 0.65 28.3 27.7
1345.08 25.48 25.42 1.175 17.13 0.65 28.2 27.9
1350.00 25.48 25.42 1.175 17.12 0.64 28.2 28.0
1355.07 25.48 25.55 1.175 17.13 0.63 28.1 27.9
1360.02 25.60 25.66 1.175 17.12 0.63 28.4 27.9
1365.12 25.60 25.66 1.175 17.12 0.62 28.4 28.0
1370.04 25.60 25.66 1.175 17.13 0.61 28.4 27.8
1375.10 25.60 25.74 1.175 17.13 0.61 28.3 27.9
1380.04 25.77 25.73 1.175 17.13 0.65 28.2 27.7
1385.01 25.77 25.73 1.175 17.13 0.60 28.3 27.7
1390.07 25.77 25.73 1.175 17.13 0.59 28.4 28.1
1395.00 25.88 25.79 1.175 17.13 0.58 28.3 27.8
1400.09 25.95 25.89 1.175 17.12 0.60 28.2 27.7
1405.04 25.95 25.89 1.175 17.13 0.59 28.4 27.7
1410.10 25.95 25.89 1.175 17.13 0.58 28.4 27.8
1415.03 26.00 25.96 1.175 17.13 0.60 28.4 27.9
1420.13 26.03 26.01 1.175 17.13 0.60 28.4 28.0
1425.07 26.03 26.01 1.175 17.12 0.58 28.3 27.8
1430.00 26.03 26.01 1.175 17.13 0.61 28.3 27.9
1435.05 26.06 26.06 1.175 17.13 0.62 28.4 28.0
1440.04 26.07 26.06 1.175 17.13 0.61 28.4 28.0
1445.11 26.07 26.06 1.175 17.13 0.61 28.3 27.8
1450.04 26.07 26.06 1.175 17.13 0.58 28.4 27.8
1455.10 26.08 26.07 1.175 17.13 0.59 28.3 27.9
1460.05 26.09 26.07 1.175 17.12 0.59 28.4 28.0
1465.14 26.09 26.07 1.175 17.13 0.60 28.4 27.8
1470.06 26.09 26.13 1.175 17.13 0.60 28.4 28.0
1475.01 26.19 26.17 1.175 17.13 0.60 28.3 27.7
1480.10 26.19 26.17 1.175 17.12 0.60 28.3 27.8
1485.02 26.19 26.17 1.175 17.13 0.58 28.5 28.1
1490.08 26.19 26.21 1.175 17.12 0.57 28.3 27.8
1495.01 26.25 26.24 1.175 17.13 0.55 28.4 27.7
1500.12 26.25 26.24 1.175 17.13 0.58 28.4 27.8
1505.04 26.25 26.24 1.175 17.13 0.59 28.4 27.9
1510.09 26.27 26.26 1.175 17.12 0.58 28.2 27.9
1515.04 26.28 26.27 1.175 17.13 0.56 28.3 28.0
1520.13 26.28 26.27 1.175 17.12 0.56 28.3 27.9
1525.05 26.28 26.27 1.175 17.13 0.58 28.4 27.7
1530.11 26.29 26.36 1.175 17.12 0.56 28.3 27.9
1535.07 26.29 26.36 1.175 17.13 0.56 28.4 27.9
1540.00 26.29 26.36 1.175 17.12 0.58 28.3 28.0
1545.06 26.29 26.36 1.175 17.13 0.57 28.3 27.9
1550.11 26.29 26.32 1.175 17.13 0.58 28.3 27.8
1555.08 26.36 26.32 1.175 17.13 0.55 28.4 27.8
1560.01 26.36 26.32 1.175 17.13 0.57 28.3 27.7
1565.07 26.36 26.38 1.175 17.13 0.57 28.3 28.0
1570.01 26.37 26.36 1.175 17.12 0.56 28.3 27.7
1575.10 26.37 26.36 1.175 17.12 0.57 28.3 27.8
1580.02 26.37 26.36 1.175 17.13 0.58 28.2 27.8
1585.08 26.37 26.34 1.175 17.12 0.56 28.4 28.0
1590.16 26.35 26.39 1.175 17.13 0.58 28.3 27.8
1595.12 26.35 26.39 1.175 17.12 0.58 28.3 27.7
1600.04 26.35 26.39 1.175 17.13 0.56 28.4 27.8
1605.10 26.47 26.43 1.175 17.13 0.56 28.4 27.7
1610.04 26.41 26.39 1.175 17.13 0.56 28.3 27.8
1615.13 26.41 26.39 1.175 17.13 0.53 28.4 27.8
1620.04 26.41 26.39 1.175 17.13 0.55 28.4 27.8
1625.10 26.39 26.47 1.175 17.13 0.55 28.5 27.9
1630.05 26.44 26.47 1.175 17.13 0.55 28.5 27.8
1635.00 26.44 26.47 1.175 17.12 0.57 28.4 27.7
1640.06 26.44 26.41 1.175 17.13 0.57 28.3 27.7
1645.13 26.46 26.44 1.175 17.13 0.56 28.4 27.8
1650.08 26.41 26.44 1.175 17.13 0.54 28.4 27.7
1655.01 26.41 26.44 1.175 17.13 0.56 28.4 27.9
1660.06 26.41 26.46 1.175 17.12 0.57 28.3 27.7
1665.01 26.46 26.47 1.175 17.12 0.57 28.3 27.8
1670.11 26.46 26.47 1.175 17.12 0.57 28.4 27.7
1675.04 26.46 26.47 1.175 17.12 0.57 28.3 27.6
1680.10 26.47 26.48 1.175 17.12 0.57 28.3 27.7
1685.04 26.48 26.42 1.175 17.13 0.55 28.3 27.9
1690.12 26.48 26.42 1.175 17.13 0.56 28.2 27.8
1695.04 26.48 26.42 1.175 17.13 0.57 28.4 27.8
1700.10 26.42 26.47 1.175 17.13 0.58 28.3 27.9
1705.06 26.45 26.47 1.175 17.13 0.59 28.4 27.8
1710.11 26.45 26.47 1.175 17.13 0.55 28.5 27.7
1715.12 26.45 26.47 1.175 17.13 0.56 28.4 27.9
1720.04 26.50 26.43 1.175 17.13 0.58 28.4 27.8
1725.01 26.47 26.43 1.175 17.13 0.56 28.3 27.6
1730.08 26.47 26.43 1.175 17.13 0.57 28.3 27.8
1735.14 26.47 26.45 1.175 17.13 0.54 28.3 27.8
1740.06 26.50 26.47 1.175 17.13 0.55 28.2 27.8
1745.02 26.50 26.47 1.175 17.12 0.58 28.3 27.8
1750.09 26.50 26.47 1.175 17.13 0.56 28.2 27.8
1755.00 26.50 26.48 1.175 17.13 0.54 28.2 27.9
1760.08 26.52 26.49 1.175 17.13 0.54 28.3 27.7
1765.04 26.52 26.49 1.175 17.13 0.55 28.5 27.9
1770.09 26.52 26.49 1.175 17.13 0.55 28.2 28.0
1775.01 26.51 26.49 1.175 17.12 0.55 28.5 27.9
1780.08 26.52 26.51 1.175 17.13 0.55 28.4 28.0
1785.03 26.52 26.51 1.175 17.13 0.53 28.4 28.0
1790.09 26.52 26.51 1.175 17.13 0.54 28.3 27.8
1795.01 26.45 26.39 1.175 17.12 0.57 28.2 27.8
1800.11 26.47 26.39 1.175 17.13 0.56 28.4 27.7
1805.04 26.47 26.39 1.175 17.12 0.56 28.3 27.9
1810.11 26.47 26.43 1.175 17.13 0.55 28.3 27.7
1815.04 26.48 26.52 1.175 17.13 0.56 28.4 27.6
1820.13 26.49 26.52 1.175 17.13 0.55 28.4 27.9
1825.06 26.49 26.52 1.175 17.13 0.56 28.3 28.0
1830.12 26.49 26.51 1.175 17.13 0.54 28.5 27.9
1835.05 26.43 26.44 1.175 17.13 0.56 28.4 27.8
1840.15 26.43 26.44 1.175 17.12 0.57 28.2 27.8
1845.07 26.43 26.44 1.175 17.13 0.54 28.4 27.6
1850.00 26.45 26.46 1.175 17.13 0.56 28.4 27.7
1855.08 26.53 26.54 1.175 17.13 0.55 28.4 27.9
1860.03 26.53 26.54 1.175 17.13 0.55 28.4 27.8
1865.10 26.53 26.54 1.175 17.13 0.55 28.4 27.6
1870.02 26.52 26.45 1.175 17.12 0.55 28.4 27.8
1875.12 26.45 26.45 1.175 17.14 0.54 28.4 27.8
1880.04 26.45 26.45 1.175 17.13 0.55 28.4 27.9
1885.10 26.45 26.45 1.175 17.12 0.58 28.3 28.0
1890.04 26.47 26.55 1.175 17.13 0.57 28.3 27.9
1895.01 26.54 26.55 1.175 17.13 0.55 28.3 27.7
1900.08 26.54 26.55 1.175 17.13 0.56 28.4 27.9
1905.00 26.54 26.53 1.175 17.13 0.57 28.3 27.9
1910.07 26.47 26.45 1.175 17.13 0.55 28.3 27.8
1915.04 26.47 26.45 1.175 17.13 0.55 28.4 28.0
1920.10 26.47 26.45 1.175 17.13 0.54 28.3 27.9
1925.02 26.48 26.47 1.175 17.12 0.56 28.3 27.8
1930.10 26.49 26.48 1.175 17.12 0.57 28.4 27.5
1935.04 26.49 26.48 1.175 17.13 0.57 28.5 27.7
1940.10 26.49 26.48 1.175 17.13 0.58 28.3 27.6
1945.02 26.51 26.50 1.175 17.13 0.55 28.5 27.9
1950.10 26.51 26.52 1.175 17.13 0.56 28.5 27.9
1955.04 26.51 26.52 1.175 17.13 0.56 28.5 27.9
1960.10 26.51 26.52 1.175 17.13 0.57 28.4 27.9
1965.16 26.52 26.52 1.175 17.13 0.55 28.4 27.9
1970.12 26.51 26.52 1.175 17.13 0.57 28.3 27.9
1975.04 26.51 26.52 1.175 17.13 0.56 28.5 28.0
1980.10 26.51 26.47 1.175 17.13 0.56 28.4 27.7
1985.04 26.46 26.48 1.175 17.12 0.56 28.4 27.7
1990.14 26.46 26.48 1.175 17.13 0.54 28.2 27.7
1995.05 26.46 26.48 1.175 17.13 0.55 28.4 27.8
2000.12 26.46 26.55 1.175 17.12 0.56 28.3 27.8
2005.05 26.48 26.53 1.253 17.13 0.56 28.3 27.9
2010.01 26.48 26.53 1.253 16.90 2.96 28.1 27.9
2015.08 26.48 26.53 1.253 16.95 3.45 27.9 27.6
2020.00 26.69 26.59 1.253 17.01 3.46 28.1 27.6
2025.09 26.91 26.76 1.253 17.02 3.43 28.0 27.8
2030.04 26.91 26.76 1.253 17.03 3.32 28.0 27.8
2035.09 26.91 27.49 1.253 17.02 3.26 28.1 27.7
2040.04 28.13 28.06 1.253 17.03 3.11 28.2 27.8
2045.00 28.13 28.06 1.253 17.04 2.98 28.2 27.8
2050.06 28.13 28.06 1.253 17.05 2.97 28.2 27.9
2055.00 28.90 29.32 1.253 17.08 2.86 28.1 27.7
2060.10 29.52 29.32 1.253 17.08 2.87 28.1 27.9
2065.04 29.52 29.32 1.253 17.08 2.81 28.2 27.7
2070.09 30.31 30.75 1.253 17.07 2.57 28.0 27.7
2075.06 30.94 30.75 1.253 17.09 2.59 28.2 27.8
2080.00 30.94 30.75 1.253 17.08 2.53 28.1 27.6
2085.06 31.66 31.99 1.253 17.08 2.63 28.3 27.7
2090.12 32.17 31.99 1.253 17.09 2.53 28.1 27.8
2095.05 32.17 31.99 1.253 17.08 2.44 28.2 27.7
2100.11 32.75 33.05 1.253 17.09 2.38 28.1 28.0
2105.08 33.20 33.05 1.253 17.09 2.36 28.3 27.8
2110.01 33.20 33.05 1.253 17.08 2.31 28.2 27.7
2115.07 33.62 33.95 1.253 17.10 2.33 28.3 27.9
2120.04 34.01 33.95 1.253 17.09 2.24 28.2 27.7
2125.11 34.01 33.95 1.253 17.09 2.30 28.0 27.9
2130.04 34.85 34.81 1.253 17.11 2.26 28.1 27.7
2135.00 34.85 34.81 1.253 17.09 2.19 28.3 27.7
2140.06 34.85 35.06 1.253 17.09 2.14 28.2 27.6
2145.00 35.44 35.34 1.253 17.08 2.15 28.1 27.7
2150.10 35.44 35.34 1.253 17.09 2.04 28.4 27.7
2155.02 35.71 35.77 1.253 17.09 2.09 28.3 27.7
2160.11 36.02 36.07 1.253 17.10 1.96 28.3 27.7
2165.06 36.02 36.07 1.253 17.09 1.97 28.2 27.8
2170.12 36.35 36.39 1.253 17.09 1.97 28.2 27.7
2175.07 36.45 36.39 1.253 17.09 1.97 28.0 27.5
2180.01 36.45 36.61 1.253 17.10 1.99 28.3 27.7
2185.08 36.92 36.76 1.253 17.10 1.96 28.3 28.1
2190.04 36.92 36.76 1.253 17.10 1.97 28.3 27.8
2195.11 37.09 36.99 1.253 17.10 2.01 28.3 27.8
2200.05 37.20 37.14 1.253 17.10 1.87 28.2 27.6
2205.01 37.20 37.14 1.253 17.10 1.86 28.3 27.8
2210.07 37.40 37.64 1.253 17.09 1.83 28.3 27.8
2215.12 37.60 37.64 1.253 17.10 1.81 28.4 27.9
2220.05 37.60 37.78 1.253 17.10 1.82 28.4 27.7
2225.12 37.78 37.73 1.253 17.09 1.81 28.3 27.7
2230.08 37.78 37.73 1.253 17.10 1.84 28.3 28.0
2235.00 37.94 37.91 1.253 17.10 1.82 28.3 27.8
2240.08 38.04 38.04 1.253 17.09 1.78 28.3 27.7
2245.04 38.04 38.04 1.253 17.10 1.76 28.2 27.8
2250.09 38.16 38.31 1.253 17.11 1.76 28.2 27.9
2255.06 38.16 38.31 1.253 17.10 1.75 28.3 27.8
2260.12 38.16 38.45 1.253 17.10 1.70 28.2 27.7
2265.04 38.47 38.40 1.253 17.11 1.73 28.1 27.8
2270.01 38.47 38.40 1.253 17.10 1.72 28.2 27.8
2275.07 38.55 38.57 1.253 17.09 1.66 28.4 27.6
2280.04 38.60 38.57 1.253 17.10 1.65 28.2 27.9
2285.11 38.60 38.60 1.253 17.10 1.67 28.3 27.9
2290.04 38.80 38.76 1.253 17.09 1.68 28.2 27.7
2295.01 38.80 38.76 1.253 17.09 1.65 28.2 27.6
2300.07 38.90 38.93 1.253 17.10 1.65 28.4 27.7
2305.05 38.82 38.93 1.253 17.10 1.70 28.3 27.9
2310.12 38.82 38.93 1.253 17.09 1.65 28.3 27.7
2315.04 38.97 38.79 1.253 17.10 1.60 28.4 27.8
2320.04 38.97 38.79 1.253 17.11 1.69 28.3 27.9
2325.10 39.02 39.03 1.253 17.10 1.62 28.3 27.7
2330.04 39.04 39.05 1.253 17.09 1.67 28.3 27.7
2335.00 39.04 39.05 1.253 17.10 1.63 28.4 27.9
2340.13 39.11 39.11 1.253 17.12 1.60 28.3 27.7
2345.11 39.11 39.11 1.253 17.11 1.57 28.2 27.7
2350.04 39.26 39.25 1.253 17.10 1.57 28.3 27.8
2355.13 39.21 39.20 1.253 17.10 1.57 28.2 27.8
2360.08 39.21 39.20 1.253 17.10 1.61 28.1 27.9
2365.00 39.17 39.30 1.253 17.10 1.56 28.1 27.6
2370.10 39.30 39.30 1.253 17.09 1.60 28.2 27.9
2375.04 39.30 39.23 1.253 17.10 1.58 28.2 27.9
2380.12 39.29 39.19 1.253 17.10 1.58 28.3 27.7
2385.07 39.29 39.19 1.253 17.10 1.60 28.3 27.9
2390.00 39.23 39.39 1.253 17.09 1.61 28.2 27.7
2395.12 39.33 39.39 1.253 17.10 1.54 28.3 27.9
2400.05 39.33 39.29 1.253 17.11 1.55 28.4 27.8
2405.13 39.20 39.23 1.253 17.11 1.62 28.3 27.8
2410.09 39.20 39.23 1.253 17.11 1.54 28.2 27.7
2415.01 39.34 39.42 1.253 17.11 1.63 28.3 27.8
2420.11 39.42 39.42 1.253 17.10 1.58 28.2 27.9
2425.04 39.42 39.33 1.253 17.10 1.59 28.2 27.7
2430.11 39.42 39.42 1.253 17.10 1.53 28.3 27.8
2435.07 39.42 39.42 1.253 17.11 1.54 28.3 27.9
2440.00 39.46 39.46 1.253 17.10 1.61 28.2 27.8
2445.09 39.34 39.34 1.253 17.10 1.59 28.1 27.8
2450.04 39.34 39.34 1.253 17.11 1.54 28.3 27.7
2455.10 39.46 39.46 1.253 17.11 1.54 28.3 27.7
2460.08 39.46 39.46 1.253 17.12 1.52 28.3 27.7
2465.15 39.51 39.49 1.253 17.11 1.55 28.3 27.8
2470.09 39.52 39.51 1.253 17.10 1.51 28.3 27.8
2475.04 39.52 39.51 1.253 17.10 1.58 28.1 27.7
2480.10 39.45 39.45 1.253 17.11 1.56 28.2 27.7
2485.07 39.45 39.45 1.253 17.11 1.50 28.2 27.6
2490.00 39.50 39.48 1.253 17.11 1.52 28.4 27.8
2495.09 39.37 39.52 1.253 17.10 1.55 28.2 27.9
2500.04 39.37 39.52 1.253 17.11 1.54 28.3 27.8
2505.10 39.47 39.39 1.253 17.10 1.51 28.2 27.6
2510.07 39.47 39.39 1.253 17.10 1.58 28.0 27.9
2515.14 39.47 39.46 1.253 17.10 1.50 28.3 27.9
2520.06 39.54 39.51 1.253 17.10 1.51 28.3 27.8
2525.04 39.54 39.51 1.253 17.11 1.52 28.2 27.9
2530.09 39.54 39.53 1.253 17.11 1.54 28.1 27.9
2535.06 39.55 39.53 1.253 17.10 1.54 28.3 27.6
2540.00 39.55 39.54 1.253 17.10 1.57 28.3 27.7
2545.07 39.55 39.54 1.253 17.11 1.52 28.2 27.8
2550.04 39.55 39.54 1.253 17.09 1.59 28.2 27.6
2555.10 39.57 39.45 1.253 17.11 1.56 28.3 27.7
2560.06 39.58 39.45 1.253 17.11 1.49 28.3 27.7
2565.00 39.58 39.48 1.253 17.11 1.54 28.3 27.7
2570.07 39.56 39.50 1.253 17.10 1.57 28.2 27.8
2575.04 39.56 39.50 1.253 17.10 1.55 28.3 27.6
2580.10 39.41 39.53 1.253 17.09 1.58 28.2 27.7
2585.07 39.46 39.53 1.253 17.11 1.54 28.1 27.7
2590.15 39.46 39.54 1.253 17.09 1.57 28.3 27.7
2595.08 39.47 39.56 1.253 17.11 1.51 28.3 27.7
2600.04 39.47 39.56 1.253 17.10 1.51 28.2 27.8
2605.10 39.35 39.42 1.253 17.09 1.50 28.3 27.7
2610.06 39.43 39.42 1.253 17.10 1.49 28.2 27.8
2615.00 39.43 39.46 1.253 17.10 1.59 28.3 27.7
2620.08 39.50 39.49 1.253 17.09 1.58 28.2 27.8
2625.04 39.50 39.49 1.253 17.10 1.47 28.2 27.8
2630.11 39.52 39.51 1.253 17.10 1.53 28.2 27.7
2635.06 39.53 39.52 1.253 17.10 1.53 28.3 27.6
2640.00 39.53 39.52 1.253 17.10 1.57 28.2 27.8
2645.06 39.55 39.57 1.253 17.11 1.58 28.3 27.7
2650.04 39.55 39.57 1.253 17.10 1.54 28.3 27.9
2655.10 39.55 39.56 1.253 17.09 1.57 28.2 27.7
2660.05 39.55 39.56 1.253 17.11 1.54 28.2 27.6
2665.00 39.55 39.56 1.253 17.10 1.54 28.2 27.6
2670.06 39.58 39.58 1.253 17.09 1.53 28.4 27.9
2675.04 39.58 39.58 1.253 17.10 1.52 28.2 27.8
2680.10 39.59 39.59 1.253 17.10 1.59 28.2 27.8
2685.04 39.59 39.59 1.253 17.10 1.60 28.1 27.8
2690.00 39.59 39.59 1.253 17.10 1.48 28.4 27.7
2695.06 39.57 39.57 1.253 17.10 1.62 28.3 27.8
2700.04 39.57 39.57 1.253 17.11 1.55 28.3 27.7
2705.10 39.56 39.58 1.253 17.10 1.56 28.3 27.8
2710.05 39.54 39.57 1.253 17.10 1.61 28.2 27.7
2715.15 39.54 39.57 1.253 17.10 1.59 28.2 27.9
2720.07 39.55 39.55 1.253 17.12 1.54 28.3 27.7
2725.05 39.55 39.55 1.253 17.11 1.56 28.3 27.6
2730.11 39.55 39.55 1.253 17.10 1.48 28.3 27.7
2735.05 39.55 39.55 1.253 17.10 1.58 28.2 27.6
2740.01 39.55 39.55 1.253 17.09 1.60 28.1 27.8
2745.06 39.57 39.58 1.253 17.09 1.60 28.2 27.7
2750.04 39.56 39.58 1.253 17.10 1.60 28.1 27.6
2755.11 39.56 39.57 1.253 17.11 1.52 28.2 27.9
2760.04 39.55 39.56 1.253 17.10 1.48 28.2 27.9
2765.01 39.55 39.56 1.253 17.11 1.49 28.1 27.7
2770.07 39.55 39.56 1.253 17.10 1.52 28.2 27.7
2775.04 39.55 39.56 1.253 17.09 1.56 28.2 27.9
2780.11 39.55 39.55 1.253 17.11 1.52 28.1 27.6
2785.05 39.57 39.55 1.253 17.10 1.60 28.3 27.6
2790.01 39.57 39.55 1.253 17.10 1.51 28.2 27.7
2795.07 39.58 39.58 1.253 17.10 1.57 28.2 27.6
2800.04 39.57 39.58 1.253 17.09 1.59 28.4 27.8
2805.11 39.57 39.57 1.253 17.11 1.54 28.3 27.9
2810.05 39.56 39.56 1.253 17.11 1.53 28.2 27.7
2815.02 39.56 39.56 1.253 17.10 1.59 28.3 27.6
2820.08 39.56 39.56 1.253 17.11 1.54 28.3 27.7
2825.05 39.55 39.56 1.253 17.11 1.52 28.2 27.9
2830.12 39.55 39.55 1.253 17.10 1.49 28.3 27.7
2835.05 39.67 39.57 1.253 17.10 1.53 28.3 27.6
2840.15 39.67 39.57 1.253 17.11 1.54 28.2 27.7
2845.07 39.50 39.58 1.253 17.10 1.54 28.3 27.8
2850.01 39.51 39.59 1.253 17.09 1.56 28.3 27.7
2855.11 39.51 39.59 1.253 17.10 1.49 28.2 27.8
2860.02 39.59 39.61 1.253 17.10 1.49 28.2 27.7
2865.11 39.59 39.61 1.253 17.10 1.57 28.3 27.7
2870.04 39.58 39.61 1.253 17.09 1.53 28.2 27.7
2875.13 39.57 39.59 1.253 17.10 1.58 28.1 27.7
2880.08 39.57 39.59 1.253 17.11 1.50 28.2 27.7
2885.00 39.56 39.57 1.253 17.10 1.53 28.2 27.6
2890.12 39.56 39.57 1.253 17.10 1.54 28.3 27.8
2895.04 39.57 39.58 1.253 17.11 1.60 28.2 27.9
2900.13 39.58 39.59 1.253 17.10 1.53 28.1 27.8
2905.07 39.58 39.59 1.253 17.11 1.51 28.2 27.9
2910.00 39.56 39.57 1.253 17.09 1.58 28.3 27.5
2915.12 39.56 39.57 1.253 17.10 1.52 28.2 27.6
2920.04 39.56 39.56 1.253 17.11 1.57 28.2 27.7
2925.13 39.56 39.56 1.253 17.11 1.57 28.3 27.7
2930.08 39.56 39.56 1.253 17.11 1.56 28.1 27.6
2935.00 39.58 39.58 1.253 17.10 1.51 28.3 27.8
2940.11 39.58 39.58 1.253 17.11 1.52 28.2 27.9
2945.04 39.58 39.57 1.253 17.11 1.56 28.3 27.9
2950.11 39.56 39.56 1.253 17.11 1.61 28.2 27.6
2955.07 39.56 39.56 1.253 17.10 1.55 28.1 27.7
2960.00 39.56 39.56 1.253 17.11 1.54 28.2 27.5
2965.13 39.52 39.56 1.253 17.11 1.53 28.2 27.9
2970.06 39.52 39.52 1.253 17.11 1.52 28.2 27.8
2975.01 39.52 39.65 1.253 17.10 1.54 28.2 27.8
2980.11 39.52 39.65 1.253 17.10 1.59 28.2 27.8
2985.04 39.53 39.44 1.253 17.11 1.52 28.2 27.7
2990.01 39.52 39.44 1.253 17.10 1.53 28.2 27.9
2995.08 39.52 39.50 1.253 17.10 1.58 28.4 27.9
3000.01 39.56 39.68 1.253 17.10 1.57 28.3 27.6
3005.11 39.56 39.68 1.331 17.10 1.61 28.2 27.6
3010.04 39.56 39.61 1.331 16.93 4.44 28.0 27.8
3015.01 39.56 39.61 1.331 16.94 5.16 27.8 27.7
3020.08 39.56 39.89 1.331 16.97 5.50 27.9 27.6
3025.02 40.25 40.09 1.331 17.01 5.25 28.0 27.8
3030.11 40.25 40.09 1.331 17.02 5.10 27.7 27.8
3035.04 41.05 40.87 1.331 17.02 5.17 27.9 27.8
3040.14 41.05 40.87 1.331 17.01 4.93 28.0 27.9
3045.06 41.55 41.43 1.331 17.01 4.89 28.1 27.9
3050.00 42.05 41.97 1.331 17.03 4.49 28.0 27.7
3055.09 42.05 42.50 1.331 17.00 4.69 28.1 27.8
3060.04 42.87 42.85 1.331 17.02 4.37 28.1 27.6
3065.01 42.87 42.85 1.331 17.04 4.41 28.1 27.5
3070.07 43.87 43.73 1.331 17.05 4.32 28.1 27.7
3075.05 43.87 43.73 1.331 17.05 4.41 27.9 27.8
3080.11 44.15 44.39 1.331 17.05 4.17 28.0 27.7
3085.07 44.53 44.39 1.331 17.04 3.95 28.0 27.7
3090.16 44.96 44.66 1.331 17.02 4.20 28.0 27.8
3095.11 45.25 45.06 1.331 17.04 3.85 28.0 27.5
3100.05 45.25 45.34 1.331 17.06 3.99 28.1 27.7
3105.13 45.81 45.73 1.331 17.03 4.12 28.2 27.8
3110.09 45.81 46.20 1.331 17.03 3.98 28.1 27.8
3115.04 46.29 46.28 1.331 17.06 3.98 28.1 27.8
3120.01 46.29 46.28 1.331 17.03 3.82 28.0 27.9
3125.07 46.76 46.71 1.331 17.05 3.64 28.0 27.7
3130.05 46.76 46.71 1.331 17.05 3.83 28.1 27.6
3135.12 47.16 46.93 1.331 17.05 3.50 28.0 27.6
3140.09 47.16 46.93 1.331 17.07 3.79 28.1 27.6
3145.01 47.52 47.41 1.331 17.05 3.64 28.2 27.8
3150.13 47.52 47.41 1.331 17.04 3.66 28.1 27.7
3155.04 47.69 47.87 1.331 17.06 3.66 28.0 27.7
3160.01 47.69 47.87 1.331 17.06 3.74 28.0 27.8
3165.08 47.94 47.98 1.331 17.04 3.51 28.1 27.9
3170.04 48.11 47.98 1.331 17.05 3.56 28.2 27.8
3175.12 48.21 48.46 1.331 17.04 3.32 28.0 27.7
3180.09 48.29 48.46 1.331 17.06 3.43 28.1 27.6
3185.04 48.56 48.43 1.331 17.07 3.36 28.1 27.6
3190.00 48.72 48.43 1.331 17.06 3.46 28.0 27.6
3195.08 48.63 48.81 1.331 17.08 3.48 28.1 27.7
3200.05 48.55 48.81 1.331 17.07 3.45 28.1 27.7
3205.00 48.72 48.89 1.331 17.06 3.34 28.0 27.8
3210.08 48.85 48.96 1.331 17.05 3.33 28.1 27.6
3215.12 49.03 49.12 1.331 17.07 3.42 28.1 27.6
3220.07 49.15 49.22 1.331 17.06 3.45 28.1 27.6
3225.01 49.15 49.19 1.331 17.06 3.40 28.1 27.7
3230.11 49.14 49.18 1.331 17.05 3.29 28.1 27.6
3235.06 49.36 49.39 1.331 17.06 3.43 28.2 27.7
3240.01 49.52 49.54 1.331 17.07 3.31 28.0 27.8
3245.10 49.63 49.41 1.331 17.06 3.27 28.1 27.8
3250.05 49.70 49.32 1.331 17.07 3.33 28.0 27.8
3255.00 49.52 49.48 1.331 17.06 3.19 28.0 27.9
3260.09 49.63 49.60 1.331 17.06 3.25 28.1 27.7
3265.04 49.70 49.69 1.331 17.07 3.25 28.3 27.9
3270.14 49.52 49.74 1.331 17.07 3.35 28.1 27.8
3275.08 49.52 49.78 1.331 17.08 3.30 28.1 27.7
3280.04 49.90 49.78 1.331 17.05 3.28 28.1 27.7
3285.00 49.90 49.79 1.331 17.06 3.35 28.1 27.6
3290.07 49.64 49.83 1.331 17.08 3.16 28.0 27.5
3295.03 49.94 49.82 1.331 17.06 3.21 28.0 27.6
3300.13 50.14 49.81 1.331 17.05 3.21 28.0 27.6
3305.08 50.14 49.82 1.331 17.06 3.22 28.1 27.7
3310.01 49.98 49.83 1.331 17.06 3.26 27.9 27.7
3315.12 49.98 50.09 1.331 17.06 3.14 28.0 27.6
3320.05 49.91 50.26 1.331 17.06 3.14 27.9 27.7
3325.02 49.91 50.12 1.331 17.05 3.17 28.0 27.7
3330.09 50.13 50.03 1.331 17.06 3.20 28.0 27.7
3335.05 50.13 49.97 1.331 17.06 3.17 28.1 27.7
3340.14 49.94 50.15 1.331 17.05 3.22 27.9 27.7
3345.11 49.94 50.26 1.331 17.07 3.17 27.9 27.6
3350.04 50.31 50.13 1.331 17.05 3.20 28.0 27.6
3355.00 50.39 50.03 1.331 17.06 3.23 28.1 27.6
3360.09 50.21 50.21 1.331 17.08 3.16 28.1 27.6
3365.04 50.09 50.32 1.331 17.06 3.10 28.0 27.7
3370.14 50.24 50.16 1.331 17.06 3.14 28.1 27.6
3375.09 50.33 50.29 1.331 17.08 3.23 28.1 27.5
3380.05 50.15 50.36 1.331 17.07 3.15 28.0 27.7
3385.00 50.28 50.17 1.331 17.06 3.16 28.2 27.6
3390.10 50.37 50.05 1.331 17.08 3.20 28.2 27.6
3395.04 50.20 50.23 1.331 17.06 3.21 28.0 27.7
3400.00 50.33 50.34 1.331 17.07 3.13 28.0 27.6
3405.09 50.39 50.18 1.331 17.07 3.11 28.2 27.7
3410.05 50.19 50.30 1.331 17.06 3.07 28.2 27.7
3415.00 50.33 50.38 1.331 17.06 3.23 28.2 27.8
3420.09 50.40 50.44 1.331 17.06 3.18 28.2 27.8
3425.04 50.20 50.48 1.331 17.07 3.08 28.0 27.5
3430.00 50.32 50.25 1.331 17.05 3.19 28.0 27.8
3435.08 50.43 50.37 1.331 17.08 3.17 28.1 27.7
3440.04 50.49 50.44 1.331 17.08 3.19 28.1 27.7
3445.14 50.49 50.46 1.331 17.05 3.14 28.0 27.7
3450.08 50.51 50.49 1.331 17.07 3.18 28.1 27.8
3455.04 50.51 50.26 1.331 17.06 3.10 28.3 28.0
3460.13 50.27 50.36 1.331 17.05 3.25 28.0 27.9
3465.13 50.30 50.36 1.331 17.06 3.12 27.9 27.6
3470.08 50.30 50.34 1.331 17.06 3.12 28.0 27.5
3475.02 50.15 50.48 1.331 17.06 3.11 27.9 27.8
3480.13 50.30 50.48 1.331 17.06 3.15 28.0 27.8
3485.06 50.40 50.52 1.331 17.07 3.15 28.1 27.8
3490.01 50.47 50.31 1.331 17.06 3.17 28.3 27.7
3495.10 50.51 50.46 1.331 17.06 3.21 28.1 27.7
3500.06 50.54 50.46 1.331 17.07 3.17 28.1 27.7
3505.00 50.56 50.53 1.331 17.05 3.15 28.1 27.7
3510.10 50.57 50.53 1.331 17.05 3.17 28.1 27.7
3515.04 50.57 50.38 1.331 17.06 3.01 28.2 27.7
3520.00 50.31 50.38 1.331 17.06 3.19 28.1 27.7
3525.08 50.16 50.23 1.331 17.08 3.11 28.1 27.6
3530.05 50.29 50.23 1.331 17.06 3.11 27.8 27.7
3535.00 50.36 50.39 1.331 17.06 3.17 28.1 27.7
3540.10 50.42 50.39 1.331 17.07 3.06 28.1 27.8
3545.04 50.45 50.48 1.331 17.06 3.08 28.0 27.7
3550.00 50.50 50.48 1.331 17.07 3.14 28.0 27.5
3555.07 50.52 50.53 1.331 17.08 3.23 28.0 27.6
3560.04 50.53 50.53 1.331 17.06 3.07 28.2 27.6
3565.11 50.57 50.60 1.331 17.06 3.01 28.2 27.5
3570.07 50.60 50.60 1.331 17.05 3.09 28.1 27.8
3575.00 50.60 50.45 1.331 17.06 3.10 28.0 27.7
3580.10 50.36 50.45 1.331 17.07 3.14 28.0 27.6
3585.04 50.18 50.50 1.331 17.08 3.14 28.3 27.6
3590.15 50.28 50.50 1.331 17.07 3.14 28.2 27.7
3595.07 50.39 50.56 1.331 17.05 3.10 28.2 27.7
3600.04 50.46 50.56 1.331 17.08 3.14 28.3 27.8
3605.12 50.49 50.32 1.331 17.06 3.11 28.1 27.6
3610.08 50.51 50.32 1.331 17.06 3.13 28.2 27.7
3615.02 50.56 50.48 1.331 17.06 3.03 28.0 27.7
3620.14 50.56 50.48 1.331 17.06 3.09 28.1 27.4
3625.06 50.54 50.53 1.331 17.08 3.18 28.1 27.5
3630.04 50.54 50.53 1.331 17.06 3.14 28.1 27.6
3635.11 50.56 50.54 1.331 17.05 3.07 28.2 27.7
3640.09 50.56 50.54 1.331 17.06 3.07 28.1 27.7
3645.00 50.33 50.39 1.331 17.05 3.11 28.1 27.8
3650.13 50.33 50.39 1.331 17.07 3.08 28.0 27.8
3655.04 50.48 50.51 1.331 17.06 3.20 27.8 27.6
3660.02 50.48 50.51 1.331 17.05 3.08 28.1 27.6
3665.08 50.39 50.31 1.331 17.06 3.08 28.0 27.7
3670.06 50.39 50.31 1.331 17.08 3.10 28.0 27.7
3675.12 50.48 50.30 1.331 17.06 3.04 28.2 27.7
3680.10 50.48 50.30 1.331 17.08 3.08 28.1 27.9
3685.02 50.55 50.64 1.331 17.05 3.00 28.0 27.8
3690.14 50.55 50.64 1.331 17.06 3.16 28.0 27.7
3695.05 50.57 50.61 1.331 17.07 3.06 28.1 27.7
3700.03 50.57 50.61 1.331 17.07 3.06 28.1 27.6
3705.10 50.57 50.58 1.331 17.07 3.12 28.0 27.6
3710.08 50.57 50.58 1.331 17.06 3.10 28.1 27.5
3715.15 50.56 50.55 1.331 17.06 3.16 28.1 27.5
3720.13 50.56 50.55 1.331 17.08 3.08 28.1 27.6
3725.04 50.58 50.58 1.331 17.06 3.18 28.1 27.8
3730.02 50.58 50.58 1.331 17.07 3.25 28.0 27.8
3735.08 50.38 50.60 1.331 17.08 3.17 28.2 27.8
3740.04 50.38 50.60 1.331 17.07 3.11 28.0 27.8
3745.11 50.50 50.19 1.331 17.07 3.17 28.1 27.6
3750.09 50.50 50.19 1.331 17.07 3.18 28.1 27.7
3755.00 50.39 50.42 1.331 17.07 3.23 28.1 27.9
3760.12 50.39 50.42 1.331 17.07 3.20 28.0 27.6
3765.04 50.49 50.50 1.331 17.05 3.17 28.1 27.7
3770.04 50.49 50.50 1.331 17.07 3.11 28.1 27.8
3775.10 50.50 50.49 1.331 17.06 3.15 28.2 27.7
3780.08 50.50 50.49 1.331 17.07 3.18 27.9 27.7
3785.00 50.56 50.55 1.331 17.05 3.07 28.0 27.5
3790.12 50.56 50.55 1.331 17.07 3.13 28.1 27.7
3795.04 50.55 50.53 1.331 17.08 3.11 27.9 27.7
3800.02 50.55 50.53 1.331 17.07 3.14 27.9 27.6
3805.08 50.57 50.57 1.331 17.07 3.12 28.0 27.6
3810.05 50.57 50.57 1.331 17.07 3.06 28.1 27.6
3815.12 50.57 50.57 1.331 17.06 3.08 28.1 27.8
3820.10 50.57 50.57 1.331 17.07 3.06 28.0 27.7
3825.02 50.59 50.59 1.331 17.07 3.00 28.1 27.5
3830.00 50.59 50.59 1.331 17.07 3.12 28.1 27.6
3835.06 50.33 50.58 1.331 17.07 3.09 28.2 27.7
3840.12 50.33 50.58 1.331 17.06 3.06 28.1 27.7
3845.03 50.49 50.36 1.331 17.06 3.14 28.0 27.6
3850.02 50.49 50.42 1.331 17.07 3.11 28.1 27.4
3855.09 50.52 50.46 1.331 17.07 3.09 28.0 27.8
3860.06 50.52 50.49 1.331 17.08 3.15 28.1 27.7
3865.14 50.57 50.53 1.331 17.07 3.06 28.0 27.6
3870.10 50.57 50.57 1.331 17.07 3.21 28.2 27.4
3875.03 50.34 50.58 1.331 17.07 3.15 28.1 27.5
3880.13 50.34 50.35 1.331 17.06 3.12 28.1 27.6
3885.06 50.48 50.19 1.331 17.05 3.16 28.2 27.7
3890.04 50.48 50.54 1.331 17.07 3.16 28.1 27.6
3895.11 50.58 50.58 1.331 17.06 3.04 28.0 27.6
3900.05 50.58 50.37 1.331 17.07 3.19 27.8 27.6
3905.13 50.42 50.45 1.331 17.07 3.18 27.9 27.5
3910.10 50.42 50.48 1.331 17.06 3.19 28.0 27.6
3915.04 50.48 50.50 1.331 17.05 3.14 28.2 27.5
3920.01 50.48 50.50 1.331 17.07 3.13 28.1 27.6
3925.08 50.53 50.52 1.331 17.07 3.12 27.9 27.6
3930.04 50.53 50.55 1.331 17.06 3.18 28.1 27.6
3935.12 50.59 50.58 1.331 17.06 3.13 28.1 27.7
3940.07 50.59 50.59 1.331 17.05 3.03 28.3 27.5
3945.01 50.57 50.59 1.331 17.06 3.12 28.0 27.5
3950.12 50.57 50.58 1.331 17.08 3.13 28.1 27.6
3955.06 50.31 50.57 1.331 17.07 3.13 27.9 27.5
3960.02 50.31 50.58 1.331 17.09 3.17 28.0 27.6
3965.13 50.61 50.52 1.331 17.08 3.17 28.0 27.7
3970.09 50.61 50.48 1.331 17.06 3.09 28.1 27.7
3975.04 50.58 50.50 1.331 17.07 3.17 28.1 27.6
3980.00 50.58 50.52 1.331 17.07 3.09 28.0 27.6
3985.09 50.36 50.55 1.331 17.06 3.05 28.0 27.5
3990.04 50.42 50.55 1.331 17.08 3.08 28.0 27.4
3995.13 50.45 50.55 1.331 17.07 3.11 28.1 27.6
4000.08 50.48 50.32 1.331 17.06 3.12 28.1 27.6
4005.03 50.52 50.16 1.410 17.07 3.10 28.0 27.8
4010.12 50.55 50.32 1.410 16.93 7.03 27.7 27.7
4015.06 50.56 50.42 1.410 16.92 7.68 27.8 27.5
4020.01 50.83 50.73 1.410 16.97 7.73 27.7 27.5
4025.10 51.00 50.93 1.410 16.98 7.93 27.6 27.6
4030.04 51.37 51.85 1.410 16.97 7.80 27.7 27.5
4035.02 51.88 51.85 1.410 16.92 7.45 27.7 27.5
4040.09 52.22 52.43 1.410 16.95 7.07 27.9 27.7
4045.06 52.45 52.43 1.410 16.96 7.92 27.6 27.8
4050.13 53.19 53.15 1.410 17.00 7.14 27.8 27.6
4055.10 53.19 53.15 1.410 17.04 7.87 27.6 27.5
4060.01 53.97 53.98 1.410 17.01 7.24 27.8 27.5
4065.00 53.97 53.98 1.410 16.97 6.66 27.7 27.4
4070.05 54.60 54.32 1.410 16.92 6.49 27.7 27.6
4075.04 54.60 54.68 1.410 16.98 6.78 27.5 27.7
4080.12 55.05 54.92 1.410 16.94 6.69 27.7 27.6
4085.08 55.46 55.23 1.410 16.98 6.74 27.8 27.7
4090.14 55.58 55.23 1.410 16.97 6.82 27.6 27.6
4095.07 56.38 56.35 1.410 16.95 6.60 27.9 27.7
4100.06 56.38 56.35 1.410 16.98 6.77 27.7 27.5
4105.12 56.35 56.55 1.410 16.96 6.65 28.0 27.4
4110.11 56.35 56.78 1.410 16.99 6.46 27.7 27.5
4115.03 56.94 56.99 1.410 16.97 6.38 27.9 27.7
4120.13 57.39 57.71 1.410 17.01 6.67 28.0 27.5
4125.09 57.68 57.71 1.410 17.00 6.53 27.9 27.4
4130.02 57.48 57.51 1.410 16.98 6.44 27.8 27.6
4135.00 57.48 57.51 1.410 16.94 6.42 27.9 27.6
4140.05 57.92 57.95 1.410 16.99 6.38 28.0 27.6
4145.03 58.33 58.03 1.410 16.97 6.37 27.8 27.6
4150.14 58.62 58.09 1.410 16.97 6.36 28.0 27.6
4155.08 58.51 58.73 1.410 17.00 6.06 27.7 27.5
4160.04 58.44 58.73 1.410 16.99 6.17 28.0 27.4
4165.12 58.89 58.80 1.410 16.98 6.00 27.9 27.5
4170.09 58.89 58.97 1.410 16.97 6.04 28.1 27.5
4175.04 59.09 59.06 1.410 16.98 5.99 27.9 27.7
4180.11 59.19 59.25 1.410 16.99 6.05 28.1 27.6
4185.08 59.25 59.25 1.410 17.01 6.10 27.8 27.6
4190.01 59.26 59.28 1.410 17.02 6.21 27.8 27.7
4195.13 59.26 59.65 1.410 16.97 5.98 28.1 27.6
4200.05 59.31 59.55 1.410 17.02 6.16 27.9 27.5
4205.02 59.31 59.72 1.410 17.00 6.17 27.9 27.4
4210.12 59.65 59.72 1.410 16.97 5.98 27.7 27.6
4215.12 59.75 59.76 1.410 17.04 6.03 28.0 27.8
4220.10 59.75 59.94 1.410 16.99 5.88 28.1 27.5
4225.03 60.05 59.71 1.410 17.00 5.98 27.8 27.5
4230.00 60.14 59.79 1.410 16.96 5.98 27.8 27.6
4235.10 59.84 59.79 1.410 16.98 5.78 27.9 27.7
4240.04 60.08 60.07 1.410 17.02 5.83 27.9 27.3
4245.02 60.08 60.13 1.410 16.98 5.66 27.7 27.4
4250.09 60.20 60.20 1.410 17.02 5.78 27.8 27.8
4255.05 59.90 60.25 1.410 17.03 6.06 27.7 27.5
4260.02 60.03 60.25 1.410 17.02 5.93 27.7 27.6
4265.10 60.20 60.27 1.410 17.00 5.48 27.7 27.8
4270.07 60.20 60.26 1.410 17.00 5.86 27.8 27.6
4275.01 60.49 60.26 1.410 17.00 6.12 27.8 27.5
4280.11 60.44 60.27 1.410 17.05 5.95 27.6 27.6
4285.07 60.39 60.27 1.410 17.02 5.92 27.8 27.6
4290.01 60.34 60.27 1.410 16.97 5.77 27.8 27.6
4295.13 60.34 60.30 1.410 17.02 5.81 27.8 27.6
4300.06 60.34 60.30 1.410 17.01 5.85 27.9 27.5
4305.03 60.31 60.51 1.410 16.98 5.69 27.7 27.6
4310.14 60.65 60.51 1.410 17.00 5.69 27.7 27.3
4315.06 60.46 60.77 1.410 17.01 5.93 27.9 27.5
4320.04 60.46 60.61 1.410 17.01 5.68 27.9 27.5
4325.13 60.60 60.49 1.410 17.03 5.74 27.8 27.6
4330.09 60.50 60.37 1.410 17.04 5.78 27.6 27.6
4335.05 60.43 60.37 1.410 17.02 5.67 27.8 27.5
4340.14 60.70 60.56 1.410 17.00 5.79 27.7 27.5
4345.11 60.70 60.50 1.410 16.98 5.57 28.0 27.4
4350.04 60.49 60.80 1.410 17.02 5.71 28.0 27.6
4355.00 60.64 60.55 1.410 17.00 5.91 28.0 27.5
4360.12 60.64 60.55 1.410 17.04 5.81 27.7 27.5
4365.04 60.78 60.61 1.410 16.96 5.73 27.8 27.6
4370.04 60.90 60.46 1.410 16.94 5.68 27.9 27.6
4375.14 60.65 60.72 1.410 17.00 5.61 27.8 27.5
4380.08 60.81 60.71 1.410 17.08 5.90 27.9 27.6
4385.06 60.81 60.71 1.410 16.99 5.75 28.0 27.5
4390.12 60.74 60.82 1.410 17.00 5.83 27.6 27.7
4395.10 60.61 60.66 1.410 17.02 5.59 27.8 27.5
4400.04 60.51 60.56 1.410 17.01 5.72 27.8 27.6
4405.00 60.72 60.96 1.410 16.99 5.77 27.8 27.4
4410.12 60.72 60.96 1.410 17.01 5.83 27.7 27.5
4415.04 60.72 60.58 1.410 17.02 5.60 28.0 27.5
4420.02 60.58 61.02 1.410 17.04 5.87 28.0 27.6
4425.13 60.84 61.02 1.410 17.01 5.74 27.8 27.8
4430.06 60.79 60.62 1.410 16.97 5.56 27.7 27.6
4435.04 60.79 60.85 1.410 17.02 5.73 28.0 27.5
4440.12 60.86 60.65 1.410 17.02 5.81 27.9 27.6
4445.07 60.67 60.78 1.410 17.00 5.89 27.7 27.3
4450.05 60.53 60.78 1.410 17.00 5.79 28.0 27.6
4455.12 61.00 60.55 1.410 17.00 5.62 27.9 27.6
4460.09 61.00 60.82 1.410 17.01 5.52 27.8 27.5
4465.12 60.81 60.76 1.410 16.96 5.51 28.0 27.6
4470.09 60.97 60.92 1.410 17.03 5.58 28.0 27.6
4475.05 60.73 60.92 1.410 17.01 5.53 28.0 27.6
4480.14 60.77 60.50 1.410 16.99 5.79 27.7 27.4
4485.12 60.77 60.80 1.410 16.99 5.58 27.9 27.3
4490.05 60.77 61.00 1.410 17.02 5.50 27.8 27.5
4495.04 60.54 60.50 1.410 17.01 5.69 27.9 27.5
4500.01 60.75 60.50 1.410 16.97 5.70 27.8 27.6
4505.09 60.72 60.94 1.410 16.99 5.57 27.9 27.5
4510.06 60.72 60.71 1.410 17.01 5.71 27.7 27.6
4515.00 60.84 60.58 1.410 17.01 5.54 27.8 27.5
4520.11 60.77 61.01 1.410 17.02 5.82 27.9 27.6
4525.09 60.77 61.01 1.410 17.00 5.94 27.8 27.5
4530.00 60.87 60.61 1.410 17.01 5.76 27.9 27.6
4535.13 61.01 60.84 1.410 17.02 5.74 27.9 27.5
4540.09 60.76 60.99 1.410 17.02 5.96 27.9 27.4
4545.03 60.55 60.63 1.410 16.97 5.57 27.9 27.6
4550.13 60.55 60.63 1.410 17.00 5.45 27.8 27.5
4555.04 60.83 61.12 1.410 17.00 5.60 27.9 27.4
4560.02 61.02 60.87 1.410 17.01 5.52 27.8 27.5
4565.11 60.78 60.68 1.410 17.01 5.56 27.9 27.4
4570.05 60.85 61.06 1.410 17.00 5.80 27.9 27.5
4575.04 60.85 60.79 1.410 17.00 5.56 28.0 27.5
4580.11 60.78 60.61 1.410 17.01 5.75 27.8 27.5
4585.08 60.64 60.35 1.410 17.00 5.67 27.6 27.4
4590.18 60.87 60.35 1.410 16.99 5.70 27.8 27.4
4595.13 60.77 61.02 1.410 16.95 5.64 27.8 27.3
4600.10 60.77 61.14 1.410 17.00 5.63 27.9 27.3
4605.04 60.85 61.21 1.410 17.00 5.76 27.9 27.5
4610.00 61.03 60.69 1.410 16.96 5.59 28.0 27.4
4615.10 60.79 60.69 1.410 17.00 5.58 28.0 27.5
4620.04 60.86 60.69 1.410 17.00 5.47 28.0 27.7
4625.02 60.86 60.56 1.410 17.01 5.65 28.0 27.5
4630.09 60.76 60.82 1.410 16.99 5.42 27.7 27.5
4635.06 60.61 60.54 1.410 17.02 5.64 27.8 27.5
4640.03 60.82 60.54 1.410 16.99 5.56 27.9 27.5
4645.11 60.75 60.96 1.410 16.98 5.59 27.9 27.4
4650.09 60.75 60.74 1.410 17.00 5.54 27.8 27.4
4655.03 60.80 60.91 1.410 16.99 5.79 27.8 27.3
4660.00 60.77 60.78 1.410 17.01 5.76 27.8 27.5
4665.12 60.77 60.78 1.410 17.01 5.54 27.6 27.4
4670.04 60.81 60.70 1.410 16.99 5.63 27.9 27.5
4675.02 60.97 60.55 1.410 17.00 5.72 28.0 27.6
4680.11 60.75 60.83 1.410 17.01 5.57 27.7 27.4
4685.05 60.85 60.55 1.410 16.99 5.61 28.0 27.6
4690.04 60.85 60.55 1.410 16.97 5.51 27.9 27.3
4695.10 60.76 60.98 1.410 16.98 5.58 27.9 27.4
4700.08 60.62 60.77 1.410 17.00 5.55 27.9 27.5
4705.04 60.85 60.60 1.410 17.01 5.41 28.0 27.8
4710.00 60.71 60.95 1.410 17.01 5.84 27.8 27.4
4715.14 60.71 60.95 1.410 17.01 5.72 27.9 27.5
4720.05 60.78 60.53 1.410 17.01 5.55 27.8 27.5
4725.02 60.63 61.04 1.410 17.03 5.69 28.0 27.3
4730.13 60.54 61.04 1.410 17.03 5.88 27.9 27.5
4735.06 61.01 60.64 1.410 16.97 5.67 27.9 27.4
4740.04 61.01 60.83 1.410 17.02 5.90 27.8 27.5
4745.13 60.58 60.97 1.410 17.01 5.69 27.8 27.5
4750.08 60.87 60.64 1.410 16.94 5.65 27.5 27.6
4755.04 60.68 60.64 1.410 17.00 5.80 27.8 27.5
4760.12 60.76 60.64 1.410 16.99 5.88 27.9 27.3
4765.11 60.76 60.53 1.410 16.98 5.78 27.7 27.5
4770.04 60.75 60.82 1.410 16.98 5.50 28.0 27.6
4775.01 60.60 60.52 1.410 17.00 5.47 27.7 27.5
4780.11 60.85 60.52 1.410 17.01 5.53 27.7 27.6
4785.04 60.76 60.98 1.410 17.02 5.65 27.8 27.3
4790.02 60.76 60.75 1.410 16.99 5.62 27.9 27.4
4795.09 60.88 60.62 1.410 16.97 5.63 27.9 27.4
4800.06 60.51 61.03 1.410 17.05 5.84 27.9 27.4
4805.05 60.51 61.03 1.410 17.03 5.83 27.7 27.2
4810.11 60.58 60.55 1.410 17.01 5.69 27.9 27.4
4815.09 60.47 60.84 1.410 17.04 5.81 27.8 27.4
4820.04 60.75 61.01 1.410 17.02 5.73 27.6 27.4
4825.00 60.72 60.58 1.410 17.01 5.74 27.8 27.5
4830.12 60.72 60.58 1.410 17.02 5.65 27.6 27.5
4835.04 60.84 61.00 1.410 17.02 5.90 27.8 27.4
4840.16 61.01 60.77 1.410 16.99 5.47 27.7 27.6
4845.11 60.77 60.59 1.410 16.99 5.42 27.7 27.5
4850.05 60.86 60.65 1.410 17.05 5.88 27.9 27.5
4855.04 60.86 60.65 1.410 17.00 5.76 28.0 27.2
4860.10 60.77 60.80 1.410 17.02 5.82 27.8 27.3
4865.08 60.63 60.64 1.410 17.03 5.91 27.9 27.4
4870.04 60.85 60.51 1.410 17.01 5.65 27.8 27.3
4875.12 60.53 60.98 1.410 16.98 5.82 27.9 27.2
4880.10 60.53 60.75 1.410 17.02 5.61 27.8 27.2
4885.03 60.60 60.60 1.410 17.01 5.87 27.8 27.4
4890.01 60.49 61.01 1.410 17.01 5.75 27.8 27.5
4895.11 60.81 61.01 1.410 16.99 5.79 27.7 27.6
4900.04 60.76 60.60 1.410 17.00 5.39 27.6 27.4
4905.02 60.76 60.50 1.410 17.04 5.85 27.9 27.5
4910.09 60.53 60.45 1.410 17.02 5.74 27.6 27.3
4915.05 60.79 60.93 1.410 16.97 5.54 27.9 27.4
4920.02 60.98 60.93 1.410 17.00 5.68 27.7 27.4
4925.10 60.59 60.55 1.410 17.01 5.65 27.8 27.4
4930.08 60.59 60.47 1.410 16.99 5.47 27.9 27.5
4935.02 60.98 60.75 1.410 17.01 5.77 27.9 27.4
4940.00 60.74 60.69 1.410 17.03 5.84 27.9 27.3
4945.09 60.59 60.69 1.410 16.99 5.80 27.8 27.4
4950.02 60.67 60.84 1.410 17.01 5.67 27.9 27.3
4955.01 60.53 60.99 1.410 17.00 5.63 27.9 27.4
4960.10 60.46 60.74 1.410 17.00 5.74 27.7 27.3
4965.12 60.67 60.80 1.410 16.97 5.85 27.9 27.3
4970.10 60.67 60.80 1.410 17.01 5.80 27.7 27.4
4975.02 60.80 60.52 1.410 17.02 5.90 27.9 27.4
4980.00 60.98 60.43 1.410 16.96 5.55 27.9 27.5
4985.09 61.12 60.75 1.410 16.98 5.64 27.8 27.4
4990.04 60.65 60.74 1.410 16.99 5.53 27.8 27.4
4995.03 60.65 60.74 1.410 17.02 5.54 27.9 27.6
5000.10 60.63 60.78 1.410 17.02 5.87 27.6 27.2
5005.07 60.51 60.97 1.488 17.02 5.72 27.8 27.4
5010.03 60.79 60.71 1.488 16.86 10.32 27.4 27.3
5015.11 60.56 60.90 1.488 16.86 11.34 27.3 27.4
5020.09 60.56 60.90 1.488 16.84 11.63 27.2 27.4
5025.00 61.64 61.19 1.488 16.83 11.61 27.2 27.2
5030.12 61.56 61.94 1.488 16.89 11.22 27.5 27.4
5035.08 61.87 61.94 1.488 16.85 11.27 27.2 27.4
5040.01 62.49 62.27 1.488 16.92 11.13 27.2 27.3
5045.12 62.86 62.73 1.488 16.85 10.81 27.2 27.4
5050.07 63.12 63.02 1.488 16.89 10.91 27.3 27.3
5055.02 63.80 64.02 1.488 16.88 10.60 27.4 27.6
5060.00 63.80 63.88 1.488 16.89 10.75 27.4 27.5
5065.08 64.34 64.19 1.488 16.90 10.37 27.4 27.6
5070.04 64.60 64.54 1.488 16.84 10.26 27.3 27.3
5075.04 64.60 64.99 1.488 16.88 10.28 27.3 27.5
5080.12 64.92 64.88 1.488 16.87 10.05 27.3 27.5
5085.08 64.66 65.52 1.488 16.86 10.29 27.4 27.4
5090.14 64.66 65.52 1.488 16.89 10.15 27.1 27.3
5095.06 66.46 65.47 1.488 16.88 10.10 27.4 27.3
5100.04 66.21 66.20 1.488 16.91 9.97 27.5 27.4
5105.01 66.21 66.20 1.488 16.87 10.02 27.6 27.5
5110.08 66.11 66.39 1.488 16.90 9.43 27.5 27.6
5115.05 66.74 66.62 1.488 16.89 9.70 27.4 27.3
5120.05 66.74 66.62 1.488 16.92 9.82 27.4 27.4
5125.11 67.09 66.55 1.488 16.86 9.78 27.4 27.3
5130.08 66.52 67.02 1.488 16.91 9.29 27.3 27.5
5135.06 66.52 67.02 1.488 16.93 9.95 27.4 27.4
5140.00 67.22 67.13 1.488 16.92 9.49 27.4 27.3
5145.11 67.74 67.27 1.488 16.91 9.67 27.3 27.3
5150.08 67.74 67.28 1.488 16.95 9.49 27.5 27.3
5155.02 67.48 67.72 1.488 16.89 9.31 27.6 27.3
5160.10 67.53 67.65 1.488 16.89 9.29 27.3 27.4
5165.09 67.53 67.99 1.488 16.92 8.87 27.5 27.4
5170.02 68.15 67.76 1.488 16.91 9.58 27.5 27.5
5175.00 67.64 67.90 1.488 16.93 9.34 27.6 27.4
5180.11 67.64 68.19 1.488 16.89 9.27 27.5 27.6
5185.04 68.27 68.39 1.488 16.93 9.64 27.5 27.3
5190.00 67.79 67.83 1.488 16.95 9.46 27.5 27.3
5195.12 68.07 68.57 1.488 16.94 9.52 27.5 27.4
5200.08 68.25 68.58 1.488 16.94 9.35 27.3 27.3
5205.04 68.41 68.25 1.488 16.93 9.01 27.6 27.6
5210.02 68.49 68.38 1.488 16.92 9.13 27.6 27.4
5215.14 68.04 67.95 1.488 16.94 8.77 27.3 27.4
5220.08 68.83 68.80 1.488 16.90 8.73 27.4 27.3
5225.06 68.75 68.71 1.488 16.95 9.13 27.5 27.4
5230.02 68.72 68.71 1.488 16.93 8.75 27.4 27.4
5235.10 68.75 68.72 1.488 16.88 8.72 27.5 27.5
5240.07 69.19 68.68 1.488 16.87 8.81 27.4 27.6
5245.04 68.97 68.68 1.488 16.90 9.21 27.3 27.5
5250.12 68.48 68.66 1.488 16.92 8.65 27.6 27.7
5255.10 68.59 68.66 1.488 16.90 8.83 27.5 27.5
5260.08 68.59 68.67 1.488 16.92 8.83 27.6 27.4
5265.01 68.63 68.68 1.488 16.91 8.62 27.4 27.5
5270.12 68.64 68.65 1.488 16.95 9.29 27.3 27.3
5275.11 68.64 68.67 1.488 16.90 9.07 27.5 27.2
5280.04 68.65 68.66 1.488 16.91 8.71 27.6 27.4
5285.01 69.14 68.66 1.488 16.91 8.85 27.6 27.3
5290.13 68.98 69.12 1.488 16.93 8.71 27.6 27.2
5295.08 68.87 68.96 1.488 16.96 9.03 27.6 27.2
5300.04 69.08 69.26 1.488 16.93 8.64 27.4 27.5
5305.00 68.97 68.99 1.488 16.96 8.78 27.3 27.3
5310.10 68.90 68.99 1.488 16.93 8.95 27.5 27.3
5315.03 68.78 68.87 1.488 16.94 9.32 27.4 27.4
5320.01 69.18 68.75 1.488 16.93 8.97 27.7 27.3
5325.14 69.18 68.75 1.488 16.92 8.80 27.6 27.5
5330.05 68.90 69.03 1.488 16.91 8.76 27.4 27.5
5335.04 69.06 69.26 1.488 16.94 8.81 27.5 27.5
5340.16 69.06 69.07 1.488 16.88 8.56 27.6 27.4
5345.10 69.27 68.92 1.488 16.91 9.03 27.5 27.4
5350.05 68.94 68.81 1.488 16.95 8.68 27.5 27.3
5355.04 69.31 69.19 1.488 16.91 8.70 27.3 27.2
5360.14 69.09 69.48 1.488 16.93 9.02 27.4 27.3
5365.08 68.91 69.09 1.488 16.94 8.59 27.4 27.3
5370.05 68.82 68.94 1.488 16.93 8.95 27.4 27.2
5375.00 69.22 68.85 1.488 16.92 8.48 27.7 27.1
5380.10 68.89 69.05 1.488 16.92 8.54 27.6 27.3
5385.08 69.26 69.31 1.488 16.93 9.09 27.6 27.2
5390.04 69.07 69.31 1.488 16.94 8.84 27.5 27.1
5395.12 69.30 68.95 1.488 16.92 8.71 27.4 27.2
5400.10 68.99 69.15 1.488 16.95 9.03 27.4 27.2
5405.06 68.99 69.00 1.488 16.86 8.79 27.4 27.5
5410.01 69.10 69.33 1.488 16.91 8.54 27.5 27.1
5415.11 68.88 68.97 1.488 16.95 9.10 27.5 27.3
5420.09 68.88 68.88 1.488 16.93 8.83 27.5 27.3
5425.03 69.19 68.78 1.488 16.90 8.84 27.4 27.3
5430.13 69.25 69.52 1.488 16.89 8.68 27.6 27.0
5435.11 69.07 69.23 1.488 16.98 9.26 27.4 27.2
5440.06 68.93 69.05 1.488 16.93 8.94 27.6 27.3
5445.02 69.21 69.14 1.488 16.92 8.71 27.4 27.3
5450.14 69.06 68.94 1.488 16.93 9.00 27.5 27.2
5455.09 68.97 68.94 1.488 16.95 8.78 27.3 27.4
5460.02 69.14 69.30 1.488 16.91 9.04 27.7 27.4
5465.15 69.31 68.91 1.488 16.92 8.94 27.5 27.5
5470.12 69.31 68.91 1.488 16.93 8.68 27.6 27.7
5475.04 69.28 69.57 1.488 16.92 8.66 27.7 27.3
5480.02 68.96 69.09 1.488 16.94 8.83 27.5 27.4
5485.00 68.96 68.97 1.488 16.91 8.93 27.4 27.3
5490.07 68.80 68.88 1.488 16.94 8.73 27.6 27.3
5495.04 69.18 69.05 1.488 16.92 8.75 27.5 27.4
5500.02 69.46 68.90 1.488 16.92 8.94 27.5 27.5
5505.11 69.20 69.28 1.488 16.93 8.55 27.7 27.3
5510.06 68.92 68.97 1.488 16.92 8.80 27.6 27.2
5515.04 69.30 69.10 1.488 16.93 8.69 27.6 27.3
5520.15 69.55 69.10 1.488 16.93 9.11 27.6 27.1
5525.08 69.07 69.30 1.488 16.88 8.80 27.4 27.2
5530.05 68.99 69.00 1.488 16.92 8.84 27.4 27.3
5535.01 68.91 69.00 1.488 16.94 8.73 27.6 27.1
5540.09 69.23 69.13 1.488 16.92 8.95 27.4 27.3
5545.07 69.19 69.32 1.488 16.91 8.49 27.4 27.4
5550.06 69.19 69.09 1.488 16.96 9.25 27.6 27.4
5555.14 69.36 68.95 1.488 16.91 9.20 27.3 27.2
5560.10 69.28 69.10 1.488 16.96 8.91 27.4 27.4
5565.08 69.28 68.97 1.488 16.94 8.88 27.6 27.3
5570.01 68.94 69.35 1.488 16.89 8.87 27.6 27.4
5575.12 69.23 68.94 1.488 16.90 8.85 27.6 27.3
5580.10 69.07 69.33 1.488 16.97 8.78 27.6 27.3
5585.04 68.97 69.14 1.488 16.97 9.05 27.4 27.4
5590.14 69.12 69.33 1.488 16.93 8.73 27.3 27.4
5595.11 69.01 69.02 1.488 16.91 8.57 27.4 27.5
5600.07 68.92 69.02 1.488 16.89 8.91 27.6 27.3
5605.14 69.23 69.14 1.488 16.93 8.71 27.5 27.2
5610.12 69.25 69.35 1.488 16.93 9.08 27.5 27.5
5615.10 69.25 69.35 1.488 16.88 8.66 27.4 27.3
5620.02 68.89 68.98 1.488 16.91 8.95 27.7 27.2
5625.01 69.19 69.05 1.488 16.91 8.87 27.4 27.4
5630.13 69.19 68.93 1.488 16.90 8.73 27.5 27.2
5635.07 69.20 69.32 1.488 16.87 8.96 27.3 27.3
5640.03 68.88 69.24 1.488 16.92 9.15 27.4 27.3
5645.02 69.27 69.05 1.488 16.86 8.60 27.6 27.3
5650.11 69.53 68.91 1.488 16.91 8.54 27.6 27.3
5655.06 69.05 69.26 1.488 16.94 9.13 27.3 27.3
5660.04 68.92 69.22 1.488 16.91 8.75 27.4 27.4
5665.00 69.31 69.22 1.488 16.89 8.90 27.5 27.2
5670.08 69.26 68.92 1.488 16.91 8.71 27.5 27.2
5675.06 69.05 69.23 1.488 16.94 8.79 27.5 27.3
5680.04 69.37 69.23 1.488 16.90 8.90 27.5 27.2
5685.11 68.99 69.23 1.488 16.88 8.85 27.7 27.2
5690.08 69.18 69.42 1.488 16.88 8.72 27.4 27.2
5695.06 69.18 69.18 1.488 16.96 8.95 27.5 27.2
5700.14 68.90 69.00 1.488 16.93 8.87 27.4 27.4
5705.10 69.55 69.12 1.488 16.93 8.48 27.5 27.5
5710.08 68.83 69.00 1.488 16.94 9.12 27.6 27.5
5715.17 68.79 69.36 1.488 16.94 8.73 27.5 27.1
5720.13 69.45 69.23 1.488 16.94 8.78 27.3 27.3
5725.10 69.67 69.38 1.488 16.89 8.60 27.4 27.4
5730.07 69.33 69.38 1.488 16.96 8.76 27.3 27.2
5735.01 69.39 69.27 1.488 16.92 9.04 27.5 27.4
5740.13 69.63 68.97 1.488 16.96 8.61 27.6 27.1
5745.09 69.33 68.97 1.488 16.96 8.98 27.5 27.2
5750.00 69.12 69.44 1.488 16.92 8.70 27.6 27.3
5755.11 68.90 69.07 1.488 16.95 8.81 27.5 27.3
5760.08 68.90 69.45 1.488 16.91 8.51 27.3 27.4
5765.01 69.28 69.23 1.488 16.96 8.91 27.5 27.4
5770.11 68.98 68.96 1.488 16.90 9.06 27.4 27.1
5775.08 68.98 68.89 1.488 16.94 8.62 27.5 27.3
5780.01 69.62 69.31 1.488 16.94 9.14 27.5 27.3
5785.12 69.10 69.24 1.488 16.93 8.88 27.5 27.3
5790.10 68.95 69.05 1.488 16.89 8.89 27.5 27.2
5795.05 69.32 69.36 1.488 16.92 8.75 27.3 27.6
5800.00 69.28 68.98 1.488 16.97 9.04 27.2 27.4
5805.12 69.07 69.09 1.488 16.91 8.33 27.5 27.4
5810.09 68.93 69.09 1.488 16.92 8.61 27.8 27.5
5815.02 69.31 69.37 1.488 16.92 8.79 27.5 27.4
5820.13 69.37 69.39 1.488 16.98 9.15 27.5 27.4
5825.10 69.37 69.16 1.488 16.93 8.60 27.6 27.3
5830.03 68.99 69.01 1.488 16.93 8.68 27.5 27.4
5835.14 69.35 69.35 1.488 16.93 8.90 27.5 27.5
5840.14 69.35 69.50 1.488 16.89 8.78 27.4 27.2
5845.07 69.11 69.12 1.488 16.93 8.84 27.5 27.3
5850.04 68.87 69.32 1.488 16.90 9.11 27.4 27.4
5855.02 69.28 69.12 1.488 16.95 8.60 27.6 27.2
5860.11 69.54 68.96 1.488 16.94 9.14 27.3 27.3
5865.06 69.07 69.12 1.488 16.93 8.45 27.4 27.4
5870.04 68.95 69.32 1.488 16.93 8.93 27.3 27.3
5875.00 69.32 69.32 1.488 16.95 8.93 27.3 27.3
5880.08 69.28 69.28 1.488 16.88 8.71 27.6 27.4
5885.06 69.02 69.33 1.488 16.87 8.83 27.4 27.4
5890.03 68.87 69.55 1.488 16.94 8.74 27.5 27.5
5895.13 69.52 69.25 1.488 16.92 8.83 27.4 27.2
5900.10 69.05 68.92 1.488 16.91 8.82 27.6 27.4
5905.07 69.05 68.84 1.488 16.89 8.78 27.6 27.2
5910.01 69.62 69.25 1.488 16.96 8.87 27.4 27.1
5915.12 69.08 69.22 1.488 16.93 8.62 27.5 27.2
5920.10 68.94 69.03 1.488 16.93 8.81 27.3 27.3
5925.05 68.86 69.37 1.488 16.90 8.69 27.5 27.3
5930.00 69.54 68.96 1.488 16.93 8.88 27.4 27.3
5935.13 69.26 69.13 1.488 16.91 8.85 27.6 27.1
5940.09 69.07 69.13 1.488 16.94 9.04 27.3 27.2
5945.02 69.30 69.36 1.488 16.96 9.27 27.2 27.4
5950.01 69.55 69.27 1.488 16.94 8.74 27.4 27.2
5955.11 69.27 69.27 1.488 16.93 9.17 27.3 27.1
5960.04 68.98 69.00 1.488 16.89 8.87 27.5 27.3
5965.16 69.57 69.28 1.488 16.89 8.62 27.4 27.5
5970.00 69.57 69.56 1.488 16.96 9.06 27.5 27.2
5975.07 69.11 69.29 1.488 16.91 8.85 27.5 27.3
5980.02 68.89 69.47 1.488 16.94 8.76 27.3 27.2
5985.01 69.26 69.19 1.488 16.91 8.83 27.5 27.4
5990.10 69.54 69.01 1.488 16.89 8.73 27.5 27.4
5995.04 68.99 69.55 1.488 16.94 8.59 27.5 27.2
6000.04 69.36 69.02 1.488 16.96 8.79 27.4 27.3
6005.15 69.11 69.02 1.566 16.87 8.66 27.5 27.4
6010.09 69.28 69.09 1.566 16.71 13.73 27.3 27.2
6015.07 69.54 69.31 1.566 16.74 15.50 27.1 27.3
6020.04 69.24 69.31 1.566 16.78 14.69 27.1 27.4
6025.12 70.16 69.72 1.566 16.79 14.93 27.0 27.2
6030.10 70.10 70.25 1.566 16.71 14.51 27.0 27.3
6035.08 70.10 70.17 1.566 16.77 14.87 26.9 27.8
6040.01 70.91 70.63 1.566 16.81 14.34 27.0 27.2
6045.11 71.27 71.14 1.566 16.81 14.33 27.0 27.4
6050.09 71.34 71.68 1.566 16.77 14.07 27.1 27.1
6055.05 71.40 71.68 1.566 16.77 15.06 27.0 27.2
6060.13 71.80 72.08 1.566 16.79 13.56 27.2 27.1
6065.10 72.23 71.84 1.566 16.74 14.44 26.9 27.2
6070.07 72.48 72.26 1.566 16.88 14.12 27.3 27.2
6075.02 72.66 72.52 1.566 16.82 12.96 27.2 27.2
6080.11 72.93 72.86 1.566 16.75 13.08 27.2 27.2
6085.08 72.97 72.95 1.566 16.79 12.66 27.1 27.2
6090.12 72.23 73.25 1.566 16.74 13.36 27.0 27.1
6095.07 73.92 73.42 1.566 16.74 13.79 27.1 27.3
6100.04 74.23 74.01 1.566 16.82 13.02 26.9 27.0
6105.03 74.30 74.26 1.566 16.88 14.27 27.0 27.5
6110.00 74.39 73.86 1.566 16.77 13.13 27.1 27.2
6115.09 74.15 74.09 1.566 16.81 13.45 27.2 27.3
6120.05 73.86 73.85 1.566 16.80 13.23 27.1 27.0
6125.04 74.11 74.21 1.566 16.77 13.08 27.0 27.3
6130.00 74.25 74.21 1.566 16.79 12.93 26.9 27.3
6135.08 75.03 74.98 1.566 16.85 13.84 27.0 27.3
6140.05 74.64 74.25 1.566 16.88 13.56 27.1 27.3
6145.03 74.61 75.33 1.566 16.91 13.85 27.1 27.6
6150.00 75.12 75.33 1.566 16.87 13.86 26.9 27.3
6155.08 74.85 74.91 1.566 16.78 12.96 27.1 27.3
6160.06 74.76 74.76 1.566 16.88 13.38 27.0 27.3
6165.04 75.25 75.59 1.566 16.73 12.56 27.1 27.4
6170.00 75.60 75.59 1.566 16.83 12.92 27.1 27.3
6175.07 75.06 75.03 1.566 16.83 13.78 27.2 27.3
6180.05 75.69 75.69 1.566 16.79 12.57 27.2 27.2
6185.04 75.33 75.04 1.566 16.82 13.36 27.0 27.4
6190.01 75.07 75.46 1.566 16.86 13.20 27.1 27.3
6195.10 75.74 75.75 1.566 16.86 12.83 27.3 27.2
6200.07 75.97 75.62 1.566 16.90 14.08 27.0 27.2
6205.05 75.53 75.44 1.566 16.78 12.58 27.1 27.2
6210.01 75.24 74.99 1.566 16.83 12.62 27.0 27.1
6215.15 75.54 75.26 1.566 16.75 12.51 27.1 27.2
6220.11 75.98 76.22 1.566 16.83 12.75 27.0 27.2
6225.08 75.55 75.38 1.566 16.83 13.07 27.0 27.2
6230.04 75.83 75.70 1.566 16.89 13.09 27.1 27.2
6235.13 75.53 75.89 1.566 16.86 12.60 27.0 27.3
6240.09 75.96 76.10 1.566 16.93 13.49 27.0 27.1
6245.07 76.08 76.14 1.566 16.86 13.23 27.3 27.4
6250.05 76.08 76.18 1.566 16.82 12.38 27.0 27.2
6255.13 76.20 76.20 1.566 16.87 12.61 27.3 27.3
6260.10 75.85 75.83 1.566 16.85 12.75 27.0 27.2
6265.07 76.08 76.09 1.566 16.86 11.80 27.2 27.4
6270.05 76.16 76.15 1.566 16.81 13.05 27.2 27.3
6275.14 76.17 75.63 1.566 16.78 12.57 27.1 27.3
6280.09 75.69 76.02 1.566 16.86 12.65 27.1 27.3
6285.07 75.95 76.10 1.566 16.84 12.71 27.0 27.2
6290.06 76.08 76.15 1.566 16.73 12.37 27.2 27.3
6295.00 76.14 76.20 1.566 16.91 13.47 27.0 27.4
6300.09 76.23 76.26 1.566 16.84 12.77 27.0 27.1
6305.07 76.21 76.22 1.566 16.80 13.34 26.8 27.3
6310.06 76.21 76.21 1.566 16.75 12.07 26.9 27.3
6315.01 76.22 76.21 1.566 16.82 12.55 27.2 27.2
6320.09 76.28 76.30 1.566 16.79 12.99 27.2 27.3
6325.07 76.21 76.23 1.566 16.82 12.24 27.1 27.3
6330.05 76.24 76.27 1.566 16.77 11.99 27.1 27.4
6335.02 76.24 76.27 1.566 16.85 13.18 26.9 27.5
6340.13 76.00 75.67 1.566 16.88 13.66 27.2 27.3
6345.11 76.17 76.41 1.566 16.86 12.45 27.0 27.3
6350.08 76.22 76.38 1.566 16.79 12.21 27.0 27.4
6355.04 76.24 76.35 1.566 16.82 12.94 26.9 27.2
6360.13 76.27 76.33 1.566 16.83 12.85 27.1 27.3
6365.09 76.33 76.32 1.566 16.84 12.14 27.3 27.4
6370.04 76.42 76.44 1.566 16.87 12.60 27.2 27.3
6375.02 76.42 76.38 1.566 16.84 12.15 27.1 27.3
6380.10 76.36 76.35 1.566 16.79 12.11 27.1 27.1
6385.05 76.33 76.33 1.566 16.92 12.81 27.0 27.3
6390.04 76.21 76.22 1.566 16.87 12.55 27.1 27.2
6395.04 76.16 76.16 1.566 16.80 12.70 27.2 27.4
6400.13 76.69 76.12 1.566 16.78 12.06 27.0 27.2
6405.09 76.42 76.17 1.566 16.89 12.77 27.1 27.4
6410.07 76.24 76.13 1.566 16.87 12.26 27.0 27.1
6415.06 76.23 76.15 1.566 16.94 13.35 27.0 27.3
6420.01 76.20 76.73 1.566 16.84 12.37 27.0 27.4
6425.11 76.22 76.45 1.566 16.80 12.10 26.9 27.4
6430.08 76.35 75.87 1.566 16.85 12.16 27.1 27.4
6435.05 76.90 76.66 1.566 16.87 12.58 26.9 27.3
6440.01 76.67 76.66 1.566 16.84 12.99 27.2 27.2
6445.09 76.45 76.45 1.566 16.83 11.65 27.2 27.1
6450.07 76.38 76.74 1.566 16.87 12.09 27.0 27.2
6455.04 76.32 76.42 1.566 16.82 12.49 27.0 27.4
6460.01 76.27 76.37 1.566 16.88 12.40 26.9 27.2
6465.13 76.63 76.21 1.566 16.83 12.46 27.1 27.3
6470.10 76.39 76.12 1.566 16.80 13.08 27.4 27.4
6475.09 76.27 76.72 1.566 16.82 12.08 27.0 27.3
6480.07 76.27 77.11 1.566 16.78 11.46 27.1 27.3
6485.01 76.58 76.79 1.566 16.85 12.30 27.3 27.4
6490.12 76.37 76.45 1.566 16.79 12.59 27.1 27.4
6495.11 76.38 76.39 1.566 16.83 12.67 27.0 27.3
6500.08 76.33 76.36 1.566 16.78 12.27 27.2 27.1
6505.02 76.91 76.34 1.566 16.81 12.27 27.1 27.3
6510.12 76.56 76.31 1.566 16.79 12.71 27.2 27.4
6515.09 76.43 76.87 1.566 16.87 12.48 27.2 27.4
6520.06 76.34 76.40 1.566 16.87 12.46 27.1 27.4
6525.05 76.21 76.40 1.566 16.84 12.91 27.1 27.3
6530.14 76.56 76.65 1.566 16.85 13.22 27.1 27.2
6535.11 76.41 76.46 1.566 16.79 12.58 27.2 27.3
6540.08 76.39 76.40 1.566 16.79 11.58 27.2 27.2
6545.04 76.93 76.33 1.566 16.92 12.61 27.0 27.3
6550.14 76.57 76.32 1.566 16.85 12.72 27.0 27.3
6555.10 76.40 76.86 1.566 16.86 13.30 27.0 27.3
6560.07 76.33 76.53 1.566 16.78 12.56 26.8 27.2
6565.05 76.33 77.02 1.566 16.83 11.54 27.1 27.4
6570.13 76.72 76.76 1.566 16.87 12.57 27.2 27.3
6575.08 76.50 76.51 1.566 16.86 12.98 26.9 27.5
6580.06 76.26 76.28 1.566 16.86 12.15 27.0 27.3
6585.06 75.69 76.25 1.566 16.87 12.79 26.9 27.3
6590.16 76.43 76.80 1.566 16.84 12.75 27.3 27.2
6595.11 76.72 76.48 1.566 16.80 11.98 27.1 27.1
6600.09 76.53 75.84 1.566 16.82 11.68 27.2 27.3
6605.06 76.45 75.98 1.566 16.91 12.73 27.1 27.4
6610.00 76.40 76.65 1.566 16.85 13.19 27.1 27.4
6615.09 76.35 76.82 1.566 16.77 11.87 27.0 27.3
6620.07 76.70 76.53 1.566 16.84 11.89 26.9 27.3
6625.04 76.55 76.39 1.566 16.78 12.00 27.1 27.1
6630.00 76.47 76.39 1.566 16.81 12.52 27.1 27.6
6635.10 76.39 76.34 1.566 16.82 12.32 27.0 27.2
6640.05 76.30 76.28 1.566 16.83 12.73 27.2 27.2
6645.04 76.26 76.21 1.566 16.79 11.76 27.2 27.2
6650.01 76.79 76.21 1.566 16.90 12.56 27.2 27.2
6655.10 76.46 76.77 1.566 16.84 12.78 27.2 27.3
6660.07 76.32 76.44 1.566 16.90 13.75 26.9 27.2
6665.06 76.31 76.34 1.566 16.82 12.42 27.1 27.2
6670.03 76.84 76.88 1.566 16.81 12.39 27.0 27.2
6675.13 76.59 76.62 1.566 16.88 12.65 27.0 27.2
6680.08 76.41 76.40 1.566 16.86 12.35 27.0 27.1
6685.06 76.34 76.33 1.566 16.90 12.88 27.1 27.2
6690.04 76.32 76.30 1.566 16.86 13.12 27.1 27.2
6695.13 76.87 76.27 1.566 16.83 11.96 27.1 27.3
6700.08 76.55 76.29 1.566 16.82 12.08 26.9 27.4
6705.06 76.34 76.79 1.566 16.87 13.52 26.9 27.3
6710.05 76.29 75.90 1.566 16.83 12.71 27.1 27.2
6715.16 76.25 75.90 1.566 16.79 12.68 26.9 27.2
6720.10 76.24 77.01 1.566 16.85 13.03 27.0 27.3
6725.07 76.64 76.63 1.566 16.85 11.92 27.2 27.2
6730.05 76.51 76.44 1.566 16.86 12.29 26.9 27.0
6735.02 76.44 76.41 1.566 16.78 12.86 27.0 27.2
6740.11 76.36 76.36 1.566 16.86 12.33 26.8 27.2
6745.07 76.81 76.24 1.566 16.79 12.52 26.8 27.2
6750.06 76.41 76.14 1.566 16.79 11.69 27.0 27.2
6755.06 76.41 76.16 1.566 16.84 12.76 27.1 27.3
6760.13 76.36 76.22 1.566 16.81 13.23 27.1 27.2
6765.09 76.33 76.86 1.566 16.84 12.14 27.0 27.4
6770.06 76.20 76.46 1.566 16.78 12.41 27.0 27.1
6775.06 76.25 76.41 1.566 16.90 13.71 27.0 27.2
6780.14 76.27 76.37 1.566 16.86 12.87 27.0 27.2
6785.09 76.25 76.29 1.566 16.86 13.45 26.9 27.4
6790.07 76.65 76.66 1.566 16.77 12.18 27.1 27.2
6795.05 76.50 76.54 1.566 16.83 11.93 27.2 27.4
6800.00 76.42 76.43 1.566 16.86 13.00 26.9 27.4
6805.09 76.31 76.36 1.566 16.84 12.76 27.0 27.4
6810.07 76.34 76.34 1.566 16.80 13.31 27.1 27.4
6815.04 76.32 76.30 1.566 16.85 12.11 27.0 27.2
6820.00 76.32 76.30 1.566 16.83 13.20 26.9 27.2
6825.09 76.24 76.22 1.566 16.79 12.63 27.1 27.5
6830.07 76.26 76.25 1.566 16.76 12.63 27.2 27.4
6835.04 76.26 76.28 1.566 16.85 12.53 27.2 27.1
6840.15 76.24 76.23 1.566 16.80 12.87 26.8 27.4
6845.11 76.75 76.17 1.566 16.78 12.32 26.9 27.3
6850.07 75.95 76.25 1.566 16.81 12.10 27.1 27.3
6855.05 76.72 76.28 1.566 16.82 12.58 27.0 27.1
6860.02 76.72 76.29 1.566 16.81 12.73 27.0 27.2
6865.11 76.40 76.23 1.566 16.85 13.00 26.9 27.3
6870.07 76.35 76.26 1.566 16.83 11.82 27.1 27.4
6875.04 76.31 76.30 1.566 16.84 12.15 27.0 27.4
6880.02 76.31 76.28 1.566 16.79 12.53 27.0 27.4
6885.11 76.32 76.27 1.566 16.78 12.39 27.1 27.3
6890.06 76.30 76.29 1.566 16.78 12.27 27.0 27.4
6895.03 76.25 76.83 1.566 16.88 12.03 26.9 27.2
6900.02 76.23 76.61 1.566 16.73 12.91 27.1 27.2
6905.11 76.22 75.94 1.566 16.83 12.24 27.2 27.5
6910.06 76.25 76.14 1.566 16.87 12.69 27.2 27.1
6915.04 76.27 76.79 1.566 16.91 12.32 27.1 27.2
6920.01 76.26 75.96 1.566 16.78 13.51 27.0 27.3
6925.11 76.29 75.96 1.566 16.81 12.13 27.1 27.2
6930.04 76.31 76.75 1.566 16.85 12.98 27.0 27.0
6935.02 76.29 76.49 1.566 16.87 12.17 26.9 27.2
6940.00 76.28 75.82 1.566 16.84 13.13 26.9 27.2
6945.10 76.30 75.98 1.566 16.87 12.60 26.8 27.1
6950.05 76.26 76.64 1.566 16.86 13.40 26.9 27.4
6955.01 76.28 76.45 1.566 16.82 12.34 26.9 27.2
6960.14 76.29 75.81 1.566 16.79 12.77 27.0 27.4
6965.13 75.59 75.84 1.566 16.82 11.85 27.0 27.4
6970.08 76.44 76.42 1.566 16.80 12.72 27.1 27.4
6975.05 76.39 76.33 1.566 16.83 12.75 27.1 27.5
6980.02 76.34 76.33 1.566 16.79 12.78 26.9 27.7
6985.00 76.34 76.27 1.566 16.85 12.20 27.2 27.4
6990.08 76.23 76.23 1.566 16.84 13.18 27.1 27.2
6995.05 76.25 76.23 1.566 16.79 12.49 27.1 27.3
7000.04 76.54 76.50 1.566 16.82 12.98 27.0 27.3
7005.02 76.00 75.98 1.644 16.82 12.66 27.1 27.3
7010.09 76.18 76.17 1.644 16.68 18.57 27.0 27.2
7015.04 76.62 76.64 1.644 16.74 20.06 27.3 27.4
7020.01 76.43 76.43 1.644 16.79 20.22 27.1 27.4
7025.13 76.39 76.92 1.644 16.83 20.29 27.1 27.3
7030.09 76.89 76.92 1.644 16.63 18.38 27.1 27.4
7035.04 77.44 77.43 1.644 16.63 20.10 27.0 27.5
7040.01 77.76 77.37 1.644 16.68 19.26 27.2 27.4
7045.13 78.29 78.13 1.644 16.75 18.91 27.2 27.4
7050.10 78.23 78.14 1.644 16.64 20.34 27.0 27.5
7055.05 78.74 78.71 1.644 16.59 18.74 27.1 27.5
7060.00 78.74 78.71 1.644 16.65 18.43 27.2 27.3
7065.11 78.98 78.96 1.644 16.64 19.71 27.2 27.3
7070.09 79.25 79.41 1.644 16.70 20.15 26.9 27.4
7075.05 79.43 79.49 1.644 16.88 19.52 27.1 27.2
7080.01 79.58 79.56 1.644 16.61 16.90 27.1 27.3
7085.12 79.63 79.64 1.644 16.77 19.69 27.1 27.4
7090.13 80.08 80.62 1.644 16.52 16.30 27.0 27.2
7095.08 80.07 80.30 1.644 16.63 19.06 27.1 27.3
7100.04 80.65 80.11 1.644 16.67 16.87 27.2 27.2
7105.13 80.28 80.03 1.644 16.65 18.71 26.9 27.2
7110.07 81.14 81.08 1.644 16.55 15.75 26.9 27.4
7115.04 81.01 80.35 1.644 16.81 17.54 27.2 27.3
7120.04 80.61 80.95 1.644 16.90 20.24 27.1 27.4
7125.02 80.95 81.18 1.644 16.68 20.12 26.9 27.3
7130.12 81.19 81.36 1.644 16.60 18.30 27.0 27.3
7135.06 81.48 81.56 1.644 16.48 17.33 27.1 27.4
7140.04 81.56 81.56 1.644 16.48 16.72 26.7 27.2
7145.03 81.52 81.50 1.644 16.48 16.81 26.9 27.3
7150.01 81.61 81.62 1.644 16.56 16.47 27.0 27.3
7155.12 81.64 81.61 1.644 16.51 16.89 26.9 27.4
7160.07 81.62 81.61 1.644 16.57 18.37 26.9 27.5
7165.04 81.62 81.62 1.644 16.81 20.26 26.9 27.5
7170.02 81.71 81.69 1.644 16.94 20.15 26.9 27.2
7175.13 81.72 81.71 1.644 16.96 19.91 27.0 27.2
7180.08 82.35 81.76 1.644 16.89 18.91 27.3 27.6
7185.05 82.74 81.71 1.644 16.72 15.61 27.1 27.4
7190.14 82.22 82.16 1.644 16.54 16.09 26.9 27.4
7195.11 81.96 82.59 1.644 16.68 18.70 27.0 27.2
7200.08 81.88 82.14 1.644 16.84 19.84 27.2 27.3
7205.05 82.52 81.91 1.644 16.84 18.33 27.2 27.3
7210.01 82.90 81.62 1.644 16.58 15.05 27.0 27.3
7215.15 81.92 82.08 1.644 16.92 19.30 27.2 27.6
7220.10 82.86 82.75 1.644 16.61 15.88 27.0 27.3
7225.09 82.19 82.78 1.644 16.73 18.69 27.1 27.4
7230.07 81.89 82.14 1.644 16.91 18.79 27.0 27.4
7235.05 82.48 82.66 1.644 16.63 15.46 27.1 27.3
7240.00 82.84 82.97 1.644 16.73 19.67 26.9 27.2
7245.10 82.14 82.20 1.644 16.63 15.11 27.1 27.3
7250.08 82.98 82.98 1.644 16.67 18.17 26.8 27.5
7255.06 82.83 82.17 1.644 16.72 17.33 27.1 27.3
7260.05 83.09 82.98 1.644 16.58 16.00 26.9 27.3
7265.02 82.88 82.52 1.644 16.84 19.43 27.1 27.2
7270.13 83.12 82.21 1.644 16.54 15.80 27.2 27.3
7275.08 82.32 82.35 1.644 16.87 19.27 27.1 27.3
7280.06 83.02 83.03 1.644 16.66 16.54 26.9 27.1
7285.05 82.26 82.92 1.644 16.70 18.23 26.9 27.2
7290.04 82.65 82.56 1.644 16.67 15.79 27.0 27.3
7295.00 82.94 82.94 1.644 16.59 18.05 26.8 27.4
7300.09 82.25 83.18 1.644 16.66 15.61 27.1 27.3
7305.05 83.07 82.40 1.644 16.75 18.42 27.1 27.2
7310.03 83.30 83.00 1.644 16.69 16.03 27.1 27.5
7315.01 82.36 82.90 1.644 16.72 18.30 27.0 27.2
7320.00 82.76 83.14 1.644 16.76 16.00 27.2 27.1
7325.10 83.01 82.61 1.644 16.58 18.36 26.8 27.3
7330.04 82.92 82.75 1.644 16.68 15.56 27.2 27.4
7335.03 82.60 83.18 1.644 16.92 18.46 27.2 27.6
7340.17 83.10 82.68 1.644 16.65 16.50 27.0 27.3
7345.01 82.43 82.92 1.644 16.83 18.29 27.0 27.3
7350.11 82.82 83.15 1.644 16.70 15.19 27.0 27.2
7355.06 83.09 82.65 1.644 16.76 19.27 26.9 27.4
7360.01 82.97 83.22 1.644 16.62 16.31 27.1 27.4
7365.14 82.64 82.96 1.644 16.73 17.03 27.1 27.4
7370.12 83.19 82.66 1.644 16.72 17.75 27.0 27.3
7375.10 83.34 83.21 1.644 16.82 17.26 27.1 27.2
7380.06 83.45 82.71 1.644 16.54 16.92 27.0 27.4
7385.01 82.45 83.02 1.644 16.76 15.65 27.0 27.3
7390.12 83.15 82.77 1.644 16.73 18.49 26.8 27.4
7395.09 83.40 83.25 1.644 16.62 16.53 26.8 27.5
7400.07 82.41 82.96 1.644 16.71 17.17 27.1 27.4
7405.05 82.82 83.34 1.644 16.61 16.68 27.1 27.3
7410.03 83.01 83.38 1.644 16.79 16.02 27.3 27.4
7415.12 83.38 82.77 1.644 16.65 18.47 27.0 27.5
7420.08 83.59 83.33 1.644 16.61 15.63 27.2 27.3
7425.05 82.56 83.12 1.644 16.80 17.06 27.2 27.2
7430.02 83.22 82.80 1.644 16.72 16.46 27.0 27.1
7435.13 82.76 83.38 1.644 16.76 17.50 27.1 27.3
7440.09 83.08 82.76 1.644 16.55 16.47 26.9 27.4
7445.05 83.30 82.99 1.644 16.64 15.31 27.1 27.4
7450.01 82.75 83.37 1.644 16.75 16.11 27.0 27.4
7455.01 83.14 82.70 1.644 16.77 18.11 27.0 27.3
7460.00 83.38 83.17 1.644 16.72 17.03 27.0 27.2
7465.14 83.36 83.28 1.644 16.81 17.26 26.9 27.3
7470.11 83.37 83.40 1.644 16.86 19.42 27.0 27.3
7475.06 83.08 83.49 1.644 16.59 16.76 26.8 27.4
7480.02 83.35 83.58 1.644 16.61 15.31 27.0 27.3
7485.00 82.84 83.11 1.644 16.79 17.78 26.9 27.3
7490.12 83.29 82.74 1.644 16.68 17.11 27.0 27.2
7495.10 83.42 83.06 1.644 16.84 17.01 27.2 27.4
7500.05 83.52 83.40 1.644 16.61 18.49 27.0 27.4
7505.02 83.57 83.48 1.644 16.56 17.14 26.9 27.5
7510.13 82.43 83.08 1.644 16.68 15.96 27.0 27.3
7515.11 83.08 83.38 1.644 16.70 16.69 26.9 27.5
7520.10 82.82 82.90 1.644 16.62 15.77 26.9 27.5
7525.06 83.08 83.13 1.644 16.83 17.11 27.2 27.2
7530.02 83.92 83.36 1.644 16.85 19.48 26.9 27.4
7535.13 83.74 83.44 1.644 16.57 17.30 26.9 27.3
7540.10 83.22 83.50 1.644 16.68 15.61 27.0 27.4
7545.08 82.80 83.15 1.644 16.75 17.31 27.0 27.5
7550.06 83.18 82.72 1.644 16.63 16.92 26.7 27.5
7555.05 83.31 82.98 1.644 16.68 15.42 27.2 27.4
7560.00 83.42 83.15 1.644 16.94 18.44 27.1 27.2
7565.10 83.52 83.36 1.644 16.66 18.32 26.9 27.3
7570.08 83.61 83.52 1.644 16.66 16.25 27.1 27.3
7575.05 82.59 83.25 1.644 16.77 17.13 27.1 27.3
7580.04 82.90 83.40 1.644 16.61 16.94 27.0 27.5
7585.00 81.98 83.50 1.644 16.77 15.94 27.1 27.4
7590.15 83.02 83.35 1.644 16.71 15.38 27.0 27.4
7595.09 83.99 82.83 1.644 16.58 17.68 27.0 27.4
7600.01 82.99 83.66 1.644 16.63 15.83 27.0 27.3
7605.13 83.37 83.24 1.644 16.82 17.19 26.9 27.2
7610.11 83.46 82.81 1.644 16.70 15.94 27.0 27.2
7615.08 83.52 83.09 1.644 16.91 18.33 27.3 27.5
7620.04 83.54 83.24 1.644 16.73 18.71 26.9 27.2
7625.13 83.23 83.50 1.644 16.63 15.80 27.0 27.4
7630.11 82.80 83.13 1.644 16.83 17.06 27.0 27.3
7635.09 83.29 83.42 1.644 16.76 17.43 26.8 27.1
7640.07 82.69 82.83 1.644 16.84 16.48 27.2 27.4
7645.04 83.90 83.12 1.644 16.84 19.45 27.0 27.4
7650.14 83.85 83.29 1.644 16.59 16.38 26.8 27.4
7655.09 82.70 83.12 1.644 16.75 16.62 27.1 27.4
7660.05 83.30 82.80 1.644 16.67 17.70 26.9 27.3
7665.02 83.49 83.30 1.644 16.68 16.74 27.0 27.3
7670.00 82.86 83.44 1.644 16.74 17.71 26.9 27.4
7675.12 82.43 82.84 1.644 16.56 15.37 26.8 27.5
7680.06 83.13 83.11 1.644 16.79 16.04 27.2 27.5
7685.04 83.36 82.69 1.644 16.77 18.27 27.1 27.4
7690.02 83.48 83.15 1.644 16.67 17.13 27.1 27.5
7695.00 83.65 83.47 1.644 16.76 16.84 27.3 27.4
7700.11 83.00 83.14 1.644 16.74 17.99 27.1 27.4
7705.08 82.53 83.30 1.644 16.62 15.13 26.8 27.1
7710.03 83.11 83.40 1.644 16.83 17.27 27.0 27.3
7715.14 83.38 82.86 1.644 16.72 18.59 26.9 27.3
7720.11 83.53 83.28 1.644 16.65 17.17 26.8 27.4
7725.09 83.22 83.11 1.644 16.71 16.77 27.2 27.4
7730.06 83.50 83.01 1.644 16.66 16.07 26.9 27.2
7735.14 83.00 83.20 1.644 16.91 19.27 27.0 27.4
7740.10 83.32 83.32 1.644 16.64 17.91 27.0 27.3
7745.06 83.53 83.53 1.644 16.63 15.80 27.0 27.4
7750.04 82.46 83.11 1.644 16.86 17.77 26.9 27.3
7755.02 83.13 83.42 1.644 16.65 17.17 27.0 27.4
7760.00 83.32 83.50 1.644 16.77 16.08 27.1 27.4
7765.09 83.43 83.14 1.644 16.79 19.02 27.2 27.2
7770.06 83.52 83.31 1.644 16.62 16.57 26.9 27.3
7775.02 83.11 83.50 1.644 16.65 14.97 27.0 27.2
7780.01 82.72 83.07 1.644 16.84 17.08 27.1 27.3
7785.13 83.30 82.78 1.644 16.61 16.56 27.0 27.3
7790.10 83.48 83.12 1.644 16.81 18.49 27.1 27.5
7795.03 83.57 83.35 1.644 16.64 17.49 26.8 27.3
7800.00 83.10 83.45 1.644 16.64 15.32 26.9 27.4
7805.11 82.79 83.18 1.644 16.87 18.20 27.1 27.4
7810.08 83.36 82.85 1.644 16.62 16.70 27.0 27.3
7815.06 83.55 83.32 1.644 16.79 17.32 27.2 27.3
7820.03 82.95 82.80 1.644 16.65 17.70 27.0 27.3
7825.11 82.57 83.10 1.644 16.74 15.63 27.2 27.4
7830.06 83.21 83.44 1.644 16.73 18.74 27.0 27.5
7835.00 83.72 83.16 1.644 16.67 15.89 27.0 27.4
7840.14 83.11 83.31 1.644 16.68 15.99 27.1 27.3
7845.12 83.32 83.14 1.644 16.66 16.88 26.9 27.4
7850.07 83.13 83.34 1.644 16.78 16.50 27.3 27.6
7855.02 83.37 82.83 1.644 16.84 19.02 26.9 27.3
7860.11 83.15 83.33 1.644 16.64 15.71 27.0 27.2
7865.08 83.44 83.09 1.644 16.77 15.96 27.0 27.3
7870.06 82.78 83.26 1.644 16.72 17.65 27.1 27.4
7875.05 83.14 82.92 1.644 16.69 15.77 27.0 27.5
7880.01 83.48 83.19 1.644 16.87 19.42 26.8 27.4
7885.10 83.59 83.40 1.644 16.59 17.09 26.9 27.4
7890.05 83.23 83.58 1.644 16.67 15.25 27.0 27.3
7895.02 82.76 83.16 1.644 16.88 17.57 27.0 27.8
7900.00 83.29 82.77 1.644 16.75 16.88 27.0 27.3
7905.11 83.46 83.30 1.644 16.84 17.78 27.1 27.2
7910.08 83.52 83.41 1.644 16.72 17.85 26.8 27.3
7915.04 83.09 83.46 1.644 16.57 15.69 26.9 27.3
7920.00 82.72 83.08 1.644 16.81 16.18 27.1 27.2
7925.12 83.25 83.40 1.644 16.86 18.52 27.1 27.3
7930.10 83.50 82.90 1.644 16.70 16.70 26.9 27.4
7935.08 83.55 83.28 1.644 16.86 18.21 26.9 27.5
7940.05 83.55 83.34 1.644 16.66 18.46 26.8 27.3
7945.01 83.10 83.43 1.644 16.58 15.36 27.0 27.4
7950.12 82.76 83.11 1.644 16.76 16.39 27.0 27.4
7955.09 83.26 83.42 1.644 16.74 17.89 27.0 27.4
7960.07 83.44 82.84 1.644 16.74 17.09 26.8 27.5
7965.13 83.16 83.39 1.644 16.54 16.34 26.9 27.4
7970.10 82.97 83.42 1.644 16.84 16.48 27.1 27.4
7975.04 83.33 82.83 1.644 16.89 18.61 27.0 27.6
7980.02 83.47 83.25 1.644 16.70 17.83 26.9 27.4
7985.00 83.10 83.42 1.644 16.66 16.63 27.0 27.4
7990.12 82.77 83.13 1.644 16.66 17.48 26.9 27.2
7995.10 83.05 83.42 1.644 16.65 15.26 27.0 27.2
8000.06 83.26 83.50 1.644 16.88 18.58 27.1 27.3
8005.01 83.48 82.88 1.722 16.74 18.55 26.9 27.3
8010.12 83.58 83.25 1.722 16.29 23.39 27.3 27.2
8015.08 82.71 83.24 1.722 16.49 22.60 27.2 27.5
8020.05 83.15 83.46 1.722 16.48 24.32 27.4 27.4
8025.05 83.23 84.11 1.722 16.64 24.84 27.4 27.4
8030.00 84.07 83.83 1.722 16.67 24.25 27.3 27.5
8035.10 84.37 83.80 1.722 16.50 22.75 27.2 27.3
8040.05 84.70 84.47 1.722 16.52 25.42 27.2 27.4
8045.04 84.51 84.42 1.722 16.55 23.37 27.1 27.4
8050.02 85.22 85.15 1.722 16.56 25.72 27.3 27.4
8055.13 84.74 85.08 1.722 16.51 23.29 27.3 27.5
8060.09 85.30 85.32 1.722 16.47 24.35 27.3 27.4
8065.05 85.45 85.48 1.722 16.50 23.16 27.2 27.4
8070.14 85.65 85.65 1.722 16.57 23.29 27.3 27.4
8075.11 85.76 85.74 1.722 16.66 24.15 27.2 27.4
8080.08 86.20 86.21 1.722 16.67 23.19 27.2 27.4
8085.06 85.89 86.58 1.722 16.67 24.27 27.3 27.2
8090.12 86.21 86.01 1.722 16.58 24.01 27.0 27.4
8095.08 86.16 85.93 1.722 16.55 24.18 27.2 27.4
8100.05 86.71 86.92 1.722 16.67 25.47 27.3 27.2
8105.02 86.63 86.51 1.722 16.56 23.31 27.3 27.2
8110.14 86.82 86.72 1.722 16.65 23.98 27.3 27.6
8115.12 87.40 87.33 1.722 16.63 24.14 27.3 27.4
8120.10 87.02 86.97 1.722 16.66 23.53 27.1 27.3
8125.06 86.96 87.44 1.722 16.66 24.29 27.3 27.1
8130.05 87.27 87.17 1.722 16.51 22.76 27.4 27.3
8135.02 87.57 87.38 1.722 16.57 23.79 27.2 27.3
8140.13 87.65 87.54 1.722 16.62 22.78 27.4 27.5
8145.09 87.78 87.71 1.722 16.54 23.76 27.2 27.4
8150.07 87.85 87.82 1.722 16.55 22.41 27.2 27.8
8155.04 87.18 87.87 1.722 16.74 24.18 27.1 27.6
8160.02 87.57 87.92 1.722 16.61 23.27 27.2 27.6
8165.00 87.72 87.85 1.722 16.56 22.74 27.2 27.6
8170.12 87.80 87.89 1.722 16.59 23.68 27.1 27.5
8175.09 87.84 87.86 1.722 16.53 23.66 27.2 27.6
8180.05 88.63 87.86 1.722 16.59 22.40 27.2 27.5
8185.01 88.20 87.84 1.722 16.71 24.53 27.2 27.4
8190.00 87.96 87.81 1.722 16.59 23.10 27.2 27.2
8195.11 88.07 87.98 1.722 16.65 23.62 27.3 27.3
8200.05 88.07 88.14 1.722 16.62 22.09 27.2 27.3
8205.04 88.49 87.96 1.722 16.53 22.82 27.0 27.5
8210.04 88.19 89.03 1.722 16.68 23.02 27.1 27.3
8215.15 87.94 88.64 1.722 16.68 23.95 27.3 27.4
8220.12 88.69 88.20 1.722 16.51 22.77 27.3 27.5
8225.08 88.25 88.10 1.722 16.54 22.50 27.3 27.4
8230.04 88.11 88.57 1.722 16.63 22.52 27.3 27.5
8235.01 88.53 88.27 1.722 16.60 22.95 27.1 27.5
8240.13 88.92 88.80 1.722 16.70 23.70 27.1 27.3
8245.12 88.38 87.84 1.722 16.56 22.14 27.0 27.4
8250.09 88.13 88.40 1.722 16.65 23.11 27.3 27.3
8255.07 88.80 89.28 1.722 16.70 23.47 27.1 27.7
8260.05 88.42 88.74 1.722 16.59 22.95 27.1 27.4
8265.01 88.79 88.41 1.722 16.57 22.45 27.2 27.3
8270.11 88.29 88.11 1.722 16.55 22.74 27.0 27.3
8275.10 89.28 89.20 1.722 16.54 22.09 27.1 27.5
8280.08 88.58 88.54 1.722 16.59 22.44 27.2 27.5
8285.05 88.16 88.12 1.722 16.53 22.11 27.1 27.3
8290.04 88.59 89.27 1.722 16.64 22.91 27.3 27.4
8295.01 89.03 88.57 1.722 16.56 23.08 27.3 27.4
8300.12 88.72 88.38 1.722 16.61 22.73 27.3 27.4
8305.06 88.52 88.95 1.722 16.60 22.27 27.4 27.6
8310.04 88.61 89.30 1.722 16.58 22.16 27.2 27.4
8315.00 89.05 88.52 1.722 16.67 22.62 27.3 27.5
8320.11 88.95 88.20 1.722 16.71 23.86 27.2 27.5
8325.09 88.43 89.33 1.722 16.68 23.29 27.3 27.5
8330.06 88.95 88.56 1.722 16.63 23.79 27.2 27.5
8335.04 88.33 88.18 1.722 16.57 23.33 27.3 27.3
8340.12 89.16 88.87 1.722 16.58 22.53 27.2 27.5
8345.08 88.63 88.61 1.722 16.58 22.30 27.2 27.3
8350.05 89.12 88.14 1.722 16.64 22.39 27.2 27.4
8355.01 88.53 88.86 1.722 16.60 22.45 27.2 27.4
8360.12 88.64 88.79 1.722 16.50 22.27 27.3 27.5
8365.10 88.99 89.06 1.722 16.56 22.98 27.2 27.6
8370.08 88.46 88.49 1.722 16.51 22.75 27.1 27.4
8375.05 88.72 89.48 1.722 16.52 22.48 27.0 27.5
8380.02 89.02 88.64 1.722 16.51 22.10 27.2 27.5
8385.00 89.38 88.70 1.722 16.57 22.68 27.2 27.5
8390.11 88.53 88.43 1.722 16.61 22.24 27.0 27.4
8395.08 89.09 89.34 1.722 16.54 22.02 27.2 27.5
8400.05 88.84 88.79 1.722 16.60 22.36 27.3 27.5
8405.02 88.98 89.01 1.722 16.62 22.98 27.3 27.4
8410.01 88.31 88.78 1.722 16.69 23.04 27.3 27.3
8415.00 89.29 88.99 1.722 16.66 22.21 27.0 27.4
8420.13 88.49 88.37 1.722 16.66 22.90 27.2 27.6
8425.11 88.76 89.43 1.722 16.61 22.72 27.3 27.7
8430.08 88.47 88.51 1.722 16.53 23.22 27.3 27.7
8435.05 89.01 89.01 1.722 16.61 22.78 27.5 27.5
8440.01 88.80 88.57 1.722 16.61 23.33 27.2 27.3
8445.11 89.07 88.96 1.722 16.63 23.39 27.2 27.3
8450.09 88.45 88.37 1.722 16.62 22.51 27.0 27.5
8455.07 89.44 89.40 1.722 16.65 22.90 27.2 27.3
8460.04 88.62 88.62 1.722 16.66 22.54 27.1 27.3
8465.17 88.73 88.69 1.722 16.55 21.95 27.2 27.3
8470.00 89.06 89.06 1.722 16.54 22.06 27.1 27.8
8475.12 89.42 89.44 1.722 16.62 21.82 27.0 27.7
8480.07 88.93 88.61 1.722 16.63 22.62 27.1 27.5
8485.04 89.08 89.11 1.722 16.64 22.86 27.3 27.6
8490.00 88.39 88.41 1.722 16.60 22.21 27.1 27.5
8495.14 88.64 88.61 1.722 16.55 22.43 27.2 27.5
8500.10 89.07 89.02 1.722 16.58 22.22 27.1 27.5
8505.07 88.38 88.36 1.722 16.55 22.13 27.1 27.3
8510.05 89.35 88.57 1.722 16.47 22.68 27.2 27.3
8515.04 88.87 88.96 1.722 16.53 22.63 27.0 27.2
8520.00 89.14 89.39 1.722 16.56 22.19 27.1 27.3
8525.10 88.74 88.56 1.722 16.59 22.10 27.3 27.3
8530.07 89.04 89.09 1.722 16.61 22.43 27.1 27.6
8535.04 88.89 88.91 1.722 16.53 21.88 27.1 27.8
8540.04 88.97 88.97 1.722 16.53 22.03 27.1 27.6
8545.02 88.87 88.33 1.722 16.48 22.41 27.2 27.4
8550.00 89.07 89.33 1.722 16.64 23.74 27.2 27.5
8555.12 88.45 88.54 1.722 16.73 23.26 27.3 27.7
8560.10 89.07 88.23 1.722 16.56 23.49 27.2 27.7
8565.06 88.45 88.88 1.722 16.61 23.03 27.2 27.4
8570.03 89.01 88.84 1.722 16.53 22.57 27.2 27.6
8575.12 88.98 88.58 1.722 16.43 22.47 27.2 27.3
8580.09 89.10 89.48 1.722 16.54 22.55 27.2 27.5
8585.07 88.45 88.60 1.722 16.50 22.53 27.1 27.3
8590.13 88.71 88.78 1.722 16.55 21.91 27.3 27.6
8595.11 88.73 88.73 1.722 16.60 22.78 27.2 27.7
8600.09 88.36 89.11 1.722 16.60 22.04 27.3 27.4
8605.06 88.12 88.24 1.722 16.53 22.42 27.1 27.4
8610.05 88.65 88.80 1.722 16.60 22.33 27.3 27.3
8615.01 89.41 89.23 1.722 16.52 21.78 27.2 27.4
8620.11 88.64 88.55 1.722 16.56 22.35 27.1 27.6
8625.07 88.78 88.75 1.722 16.60 22.13 27.1 27.4
8630.05 89.13 89.10 1.722 16.55 22.26 27.3 27.5
8635.04 88.38 88.34 1.722 16.55 22.07 27.2 27.4
8640.02 88.62 88.61 1.722 16.60 21.94 27.2 27.3
8645.13 89.04 89.05 1.722 16.59 22.40 27.1 27.5
8650.10 88.73 88.70 1.722 16.68 22.63 27.2 27.3
8655.04 88.50 89.05 1.722 16.62 22.40 27.3 27.7
8660.01 88.62 88.62 1.722 16.62 22.48 27.2 27.5
8665.12 88.99 88.97 1.722 16.68 22.60 27.3 27.5
8670.10 88.37 88.36 1.722 16.66 23.27 27.3 27.6
8675.08 88.17 89.44 1.722 16.71 22.84 27.3 27.7
8680.05 89.38 88.66 1.722 16.60 23.82 27.2 27.5
8685.02 88.61 88.34 1.722 16.62 23.18 27.3 27.4
8690.12 88.56 88.38 1.722 16.62 23.27 27.1 27.4
8695.06 89.08 89.02 1.722 16.58 22.47 27.2 27.4
8700.02 88.69 88.39 1.722 16.62 22.32 27.2 27.6
8705.13 89.07 89.01 1.722 16.58 22.57 27.3 27.3
8710.09 88.52 88.45 1.722 16.58 23.31 27.1 27.5
8715.12 88.91 88.85 1.722 16.60 23.23 27.1 27.5
8720.10 88.44 88.41 1.722 16.47 22.15 27.0 27.4
8725.07 88.62 88.63 1.722 16.49 21.40 27.1 27.4
8730.05 89.00 89.02 1.722 16.53 22.12 27.1 27.4
8735.02 88.69 88.44 1.722 16.69 23.58 27.0 27.5
8740.13 89.09 88.31 1.722 16.65 24.03 27.2 27.4
8745.09 88.73 88.20 1.722 16.55 23.16 27.0 27.5
8750.04 88.96 89.26 1.722 16.59 22.61 27.4 27.6
8755.01 88.28 88.50 1.722 16.53 22.21 27.2 27.4
8760.01 88.52 88.54 1.722 16.66 23.08 27.2 27.6
8765.13 88.93 88.95 1.722 16.74 23.90 27.0 27.5
8770.11 88.38 88.37 1.722 16.64 23.01 27.2 27.7
8775.09 88.20 88.11 1.722 16.55 23.05 27.3 27.4
8780.06 88.79 88.79 1.722 16.50 22.77 27.2 27.6
8785.03 89.18 88.65 1.722 16.52 22.05 27.1 27.6
8790.01 88.34 88.33 1.722 16.51 21.14 27.1 27.5
8795.12 88.65 88.64 1.722 16.69 23.17 27.1 27.7
8800.06 88.56 88.56 1.722 16.63 22.58 27.1 27.7
8805.04 88.92 88.89 1.722 16.57 22.75 27.1 27.4
8810.02 88.35 88.36 1.722 16.70 23.18 27.2 27.5
8815.00 88.08 88.09 1.722 16.58 22.63 27.3 27.5
8820.12 88.75 88.46 1.722 16.56 23.34 27.3 27.4
8825.09 88.24 88.24 1.722 16.67 23.57 27.1 27.2
8830.06 88.88 88.89 1.722 16.60 22.31 27.3 27.3
8835.01 88.29 88.30 1.722 16.61 22.26 27.3 27.5
8840.14 88.50 88.52 1.722 16.57 22.12 27.3 27.8
8845.12 89.00 89.01 1.722 16.52 21.81 26.9 27.6
8850.10 88.42 88.37 1.722 16.63 22.85 27.1 27.6
8855.06 88.55 89.32 1.722 16.72 23.40 27.2 27.5
8860.06 88.76 88.35 1.722 16.62 23.16 27.0 27.2
8865.06 88.44 88.17 1.722 16.60 22.36 27.2 27.4
8870.02 88.23 88.74 1.722 16.61 22.46 27.3 27.8
8875.12 88.63 88.49 1.722 16.54 22.76 27.0 27.8
8880.07 88.28 89.03 1.722 16.59 23.49 27.2 27.6
8885.04 88.91 88.50 1.722 16.52 22.13 27.2 27.4
8890.02 88.32 88.15 1.722 16.61 22.61 27.0 27.3
8895.00 88.58 87.97 1.722 16.55 22.18 27.2 27.7
8900.12 88.16 89.15 1.722 16.58 22.29 27.3 27.5
8905.11 88.02 88.40 1.722 16.53 23.09 27.2 27.5
8910.08 88.40 88.25 1.722 16.53 22.90 27.2 27.4
8915.05 88.22 88.74 1.722 16.56 22.65 27.2 27.5
8920.01 88.57 88.46 1.722 16.54 22.80 27.2 27.4
8925.12 88.20 88.92 1.722 16.63 23.63 27.1 27.3
8930.10 88.77 88.35 1.722 16.56 22.38 27.1 27.4
8935.08 88.27 88.10 1.722 16.51 22.01 27.1 27.4
8940.06 88.55 88.44 1.722 16.51 21.40 27.3 27.5
8945.04 88.37 88.99 1.722 16.63 23.00 27.1 27.5
8950.00 88.12 88.38 1.722 16.60 23.09 27.2 27.7
8955.12 88.83 88.27 1.722 16.55 23.04 27.1 27.4
8960.07 88.39 88.20 1.722 16.54 21.85 27.2 27.5
8965.12 88.49 88.41 1.722 16.67 22.74 27.2 27.7
8970.10 88.13 88.10 1.722 16.58 23.09 27.4 27.7
8975.09 88.50 88.50 1.722 16.66 22.86 27.2 27.7
8980.07 88.93 88.90 1.722 16.58 22.84 27.0 27.8
8985.05 88.29 88.30 1.722 16.58 22.91 27.0 27.8
8990.04 88.14 88.08 1.722 16.45 22.12 27.2 27.6
8995.00 88.73 88.77 1.722 16.55 21.87 27.0 27.6
9000.12 88.44 88.76 1.722 16.66 22.84 27.1 27.7
9005.08 88.12 88.47 1.800 16.63 22.66 27.3 27.5
9010.04 88.78 88.17 1.800 16.49 29.25 27.4 28.1
9015.04 88.65 88.39 1.800 16.56 30.16 27.5 27.8
9020.04 88.85 88.72 1.800 16.41 29.30 27.4 27.6
9025.02 88.87 89.59 1.800 16.43 29.50 27.5 27.7
9030.14 89.11 88.68 1.800 16.36 30.50 27.4 27.4
9035.11 89.46 89.51 1.800 16.32 28.47 27.4 27.6
9040.08 89.81 89.70 1.800 16.27 29.90 27.4 27.5
9045.05 89.14 89.93 1.800 16.43 29.66 27.5 27.8
9050.01 89.77 90.05 1.800 16.26 28.99 27.4 27.7
9055.12 90.07 90.16 1.800 16.38 29.64 27.5 27.8
9060.09 90.12 90.21 1.800 16.34 29.66 27.7 27.7
9065.07 90.93 90.17 1.800 16.42 29.12 27.4 27.7
9070.05 90.46 90.15 1.800 16.47 30.78 27.6 27.7
9075.04 90.82 90.68 1.800 16.40 29.58 27.4 27.5
9080.03 91.13 91.03 1.800 16.36 29.23 27.5 27.6
9085.02 91.63 90.57 1.800 16.30 28.98 27.5 27.5
9090.15 90.67 91.15 1.800 16.36 28.32 27.4 27.7
9095.11 91.31 91.08 1.800 16.55 29.70 27.4 28.0
9100.06 91.33 90.85 1.800 16.44 29.00 27.4 27.8
9105.04 91.42 90.94 1.800 16.38 29.31 27.4 27.6
9110.02 92.08 92.68 1.800 16.21 28.48 27.3 27.6
9115.00 91.51 91.24 1.800 16.30 28.28 27.6 27.6
9120.13 91.59 91.99 1.800 16.24 28.59 27.3 27.6
9125.10 92.27 92.42 1.800 16.37 29.17 27.5 27.6
9130.07 92.45 92.52 1.800 16.39 29.02 27.6 27.9
9135.06 92.35 91.85 1.800 16.51 29.27 27.7 27.4
9140.05 91.71 91.53 1.800 16.32 28.21 27.4 27.6
9145.03 91.21 92.12 1.800 16.38 29.26 27.6 27.6
9150.00 92.01 92.30 1.800 16.39 28.35 27.4 27.8
9155.10 92.23 92.52 1.800 16.51 29.57 27.3 27.8
9160.06 92.48 92.52 1.800 16.48 29.12 27.3 27.8
9165.05 92.41 92.48 1.800 16.47 29.28 27.5 27.5
9170.02 92.51 92.57 1.800 16.38 28.30 27.5 27.8
9175.00 92.57 92.58 1.800 16.40 28.63 27.5 27.7
9180.12 92.62 92.59 1.800 16.43 29.58 27.6 27.6
9185.10 92.66 92.63 1.800 16.55 29.82 27.5 27.7
9190.07 92.71 92.67 1.800 16.41 28.07 27.5 27.6
9195.04 93.21 93.48 1.800 16.42 28.97 27.3 27.9
9200.03 93.59 92.88 1.800 16.46 27.93 27.5 27.6
9205.02 93.05 93.32 1.800 16.37 29.01 27.3 27.6
9210.00 92.90 92.91 1.800 16.40 29.49 27.5 27.8
9215.14 92.35 92.38 1.800 16.53 29.22 27.5 27.6
9220.12 93.36 92.47 1.800 16.36 28.74 27.6 27.8
9225.08 92.32 93.10 1.800 16.46 29.29 27.4 27.7
9230.05 94.19 92.90 1.800 16.58 29.71 27.5 27.5
9235.02 93.26 93.24 1.800 16.44 29.24 27.4 27.6
9240.00 92.98 92.96 1.800 16.39 29.00 27.4 27.6
9245.08 93.03 93.10 1.800 16.44 29.11 27.3 27.5
9250.06 93.37 92.87 1.800 16.37 28.17 27.4 27.6
9255.04 93.73 93.51 1.800 16.35 28.70 27.4 28.0
9260.04 93.03 93.47 1.800 16.49 28.68 27.4 27.6
9265.01 92.82 93.00 1.800 16.40 28.45 27.3 27.7
9270.13 94.10 93.62 1.800 16.41 28.49 27.5 27.7
9275.11 93.29 93.65 1.800 16.39 28.16 27.6 27.9
9280.09 93.08 93.06 1.800 16.46 29.63 27.4 27.5
9285.05 93.59 93.51 1.800 16.43 28.65 27.7 27.7
9290.05 93.47 93.99 1.800 16.41 29.65 27.4 27.4
9295.02 93.15 93.22 1.800 16.47 28.89 27.4 27.6
9300.13 92.85 92.84 1.800 16.48 28.71 27.4 27.9
9305.10 94.16 92.79 1.800 16.42 28.87 27.3 27.5
9310.06 93.29 94.11 1.800 16.49 29.09 27.4 27.8
9315.05 92.90 93.23 1.800 16.43 29.17 27.4 27.6
9320.04 94.16 93.71 1.800 16.45 28.23 27.4 27.9
9325.01 93.28 93.64 1.800 16.48 29.25 27.4 27.7
9330.13 92.90 93.06 1.800 16.45 28.96 27.6 27.6
9335.11 94.25 93.76 1.800 16.39 28.25 27.4 27.6
9340.14 92.90 93.23 1.800 16.37 28.21 27.3 27.7
9345.11 94.24 93.79 1.800 16.34 27.96 27.4 27.5
9350.08 93.36 93.78 1.800 16.47 29.52 27.5 27.6
9355.06 93.07 93.10 1.800 16.49 28.63 27.5 27.9
9360.04 93.49 94.05 1.800 16.41 28.64 27.3 27.8
9365.02 93.53 93.55 1.800 16.45 29.09 27.2 27.9
9370.13 93.21 93.02 1.800 16.48 28.51 27.4 27.4
9375.09 93.44 94.24 1.800 16.51 29.22 27.4 27.9
9380.07 93.95 93.78 1.800 16.49 29.33 27.4 27.8
9385.03 93.13 93.09 1.800 16.49 30.02 27.4 27.6
9390.01 94.24 93.68 1.800 16.50 29.37 27.1 27.5
9395.14 93.32 93.64 1.800 16.39 28.39 27.7 27.8
9400.12 92.91 93.05 1.800 16.44 28.49 27.3 27.8
9405.10 94.18 94.24 1.800 16.46 28.47 27.5 27.8
9410.08 93.29 93.32 1.800 16.46 29.53 27.5 27.5
9415.05 94.32 93.78 1.800 16.37 28.14 27.4 27.7
9420.04 93.39 93.72 1.800 16.43 28.57 27.4 28.1
9425.01 92.98 93.16 1.800 16.42 28.87 27.3 27.5
9430.14 93.67 93.65 1.800 16.37 28.20 27.3 27.5
9435.11 93.62 93.66 1.800 16.46 29.01 27.4 27.6
9440.08 93.05 93.32 1.800 16.49 28.78 27.4 27.6
9445.05 92.90 92.88 1.800 16.46 28.90 27.3 27.5
9450.01 94.24 94.19 1.800 16.41 28.31 27.3 27.5
9455.12 93.39 93.66 1.800 16.54 28.13 27.4 27.8
9460.09 94.36 93.91 1.800 16.47 27.88 27.5 27.7
9465.13 92.81 93.16 1.800 16.46 29.34 27.5 27.8
9470.11 94.16 93.74 1.800 16.40 28.53 27.3 27.8
9475.08 93.38 93.76 1.800 16.40 28.27 27.4 28.1
9480.05 92.86 93.15 1.800 16.42 28.93 27.3 27.9
9485.04 94.10 93.62 1.800 16.37 28.51 27.5 28.0
9490.04 93.13 93.46 1.800 16.50 29.69 27.4 28.1
9495.02 94.35 93.90 1.800 16.48 28.99 27.5 27.8
9500.13 93.38 93.77 1.800 16.36 29.41 27.5 27.7
9505.11 93.12 93.11 1.800 16.50 29.22 27.4 27.7
9510.08 92.91 92.99 1.800 16.45 28.47 27.4 27.7
9515.04 93.50 93.56 1.800 16.57 29.12 27.5 28.0
9520.03 93.98 93.55 1.800 16.39 29.19 27.5 28.0
9525.13 93.20 93.23 1.800 16.35 27.98 27.4 27.6
9530.10 94.27 93.70 1.800 16.41 28.46 27.4 27.7
9535.08 93.38 93.12 1.800 16.42 27.82 27.3 27.7
9540.05 93.06 93.52 1.800 16.48 28.98 27.4 27.8
9545.03 94.16 93.80 1.800 16.35 27.94 27.5 27.8
9550.01 93.30 93.67 1.800 16.47 28.63 27.4 27.9
9555.00 92.94 93.09 1.800 16.47 28.63 27.4 27.8
9560.11 94.16 92.85 1.800 16.40 27.96 27.5 27.6
9565.09 93.37 93.61 1.800 16.35 28.49 27.3 27.6
9570.06 92.85 93.53 1.800 16.46 28.50 27.3 27.8
9575.06 93.45 93.82 1.800 16.37 28.47 27.4 28.1
9580.05 93.95 93.57 1.800 16.36 28.34 27.5 27.6
9585.02 93.16 93.20 1.800 16.41 28.32 27.4 27.6
9590.14 93.62 92.79 1.800 16.47 29.20 27.4 27.7
9595.11 94.16 94.14 1.800 16.35 27.99 27.4 27.7
9600.07 93.33 93.66 1.800 16.43 28.95 27.4 27.9
9605.04 92.95 93.10 1.800 16.49 28.50 27.4 27.7
9610.02 94.17 93.66 1.800 16.40 28.88 27.3 28.1
9615.00 93.24 93.60 1.800 16.44 29.03 27.5 27.8
9620.13 92.87 93.02 1.800 16.55 29.30 27.4 27.7
9625.10 94.26 92.87 1.800 16.53 29.44 27.4 27.6
9630.08 93.31 94.09 1.800 16.38 28.64 27.5 27.9
9635.06 92.95 93.30 1.800 16.51 29.74 27.4 28.2
9640.04 92.74 92.89 1.800 16.51 28.60 27.4 27.8
9645.02 94.18 93.61 1.800 16.44 28.90 27.5 27.7
9650.13 93.69 93.63 1.800 16.34 28.26 27.5 27.7
9655.09 93.07 93.06 1.800 16.42 28.73 27.5 28.0
9660.07 93.58 92.91 1.800 16.36 28.40 27.3 27.8
9665.05 94.04 94.03 1.800 16.30 28.67 27.3 27.6
9670.02 93.21 93.53 1.800 16.42 28.77 27.4 28.1
9675.00 92.84 92.94 1.800 16.32 27.94 27.3 27.7
9680.11 93.37 93.67 1.800 16.48 29.41 27.6 28.0
9685.05 93.34 93.46 1.800 16.44 28.55 27.4 27.8
9690.02 93.72 93.59 1.800 16.42 29.00 27.5 27.6
9695.01 93.02 92.91 1.800 16.42 29.35 27.5 27.9
9700.13 93.34 93.61 1.800 16.47 27.84 27.5 27.7
9705.11 93.81 93.61 1.800 16.43 28.86 27.5 27.7
9710.09 93.27 93.16 1.800 16.32 28.61 27.4 27.8
9715.13 93.55 93.51 1.800 16.45 29.82 27.4 27.6
9720.11 93.06 93.05 1.800 16.45 28.21 27.4 27.5
9725.09 92.91 93.64 1.800 16.54 29.20 27.6 27.6
9730.06 93.57 94.11 1.800 16.43 27.89 27.5 27.8
9735.04 94.00 93.11 1.800 16.50 29.24 27.5 28.0
9740.01 93.14 92.86 1.800 16.46 29.10 27.4 27.8
9745.12 93.42 92.77 1.800 16.49 28.54 27.6 27.5
9750.09 93.85 94.10 1.800 16.41 28.31 27.4 27.9
9755.06 93.25 93.36 1.800 16.38 28.13 27.3 27.7
9760.03 92.91 92.93 1.800 16.35 28.60 27.3 27.8
9765.14 92.99 93.00 1.800 16.46 28.21 27.4 27.8
9770.10 94.19 93.64 1.800 16.42 29.31 27.4 27.6
9775.09 93.27 93.63 1.800 16.37 27.79 27.4 27.6
9780.07 92.87 93.06 1.800 16.36 28.39 27.3 27.6
9785.05 93.62 93.73 1.800 16.44 28.11 27.4 27.7
9790.02 93.64 93.75 1.800 16.41 28.97 27.4 27.6
9795.00 93.31 93.12 1.800 16.47 29.30 27.5 27.6
9800.11 92.90 93.67 1.800 16.50 28.87 27.5 27.6
9805.09 93.32 94.21 1.800 16.29 27.73 27.4 27.7
9810.05 93.05 93.31 1.800 16.41 28.71 27.3 27.7
9815.01 93.38 92.92 1.800 16.52 28.76 27.4 28.1
9820.13 93.79 93.67 1.800 16.39 28.39 27.4 28.0
9825.11 93.14 93.61 1.800 16.39 27.70 27.4 27.6
9830.08 93.42 93.07 1.800 16.50 28.79 27.4 27.9
9835.06 93.83 92.84 1.800 16.54 28.43 27.3 28.0
9840.13 93.62 93.16 1.800 16.50 28.53 27.1 27.9
9845.11 93.06 94.27 1.800 16.30 27.66 27.4 27.7
9850.09 93.40 93.36 1.800 16.46 28.84 27.5 27.9
9855.07 93.77 93.76 1.800 16.50 27.55 27.6 27.6
9860.05 93.22 93.75 1.800 16.38 28.28 27.5 28.0
9865.02 93.48 93.18 1.800 16.58 29.92 27.4 27.8
9870.00 93.19 92.89 1.800 16.43 28.33 27.6 27.8
9875.10 93.47 93.60 1.800 16.44 28.73 27.5 27.8
9880.08 93.79 94.12 1.800 16.50 28.48 27.5 27.8
9885.05 93.36 93.23 1.800 16.50 28.85 27.4 27.7
9890.01 93.83 94.34 1.800 16.43 29.18 27.4 27.8
9895.13 93.14 93.76 1.800 16.52 28.69 27.5 27.7
9900.09 93.39 93.09 1.800 16.36 28.98 27.5 27.8
9905.08 93.74 93.62 1.800 16.48 28.17 27.4 27.9
9910.05 93.20 93.75 1.800 16.34 28.65 27.4 27.6
9915.03 93.32 93.01 1.800 16.53 28.98 27.4 27.8
9920.03 93.58 93.99 1.800 16.46 29.44 27.5 27.8
9925.02 93.63 93.22 1.800 16.40 28.15 27.5 27.8
9930.00 93.88 92.86 1.800 16.45 28.47 27.4 28.0
9935.12 93.17 94.14 1.800 16.45 28.73 27.3 28.0
9940.10 93.44 93.27 1.800 16.42 27.88 27.3 28.0
9945.08 93.17 93.76 1.800 16.41 28.57 27.4 27.9
9950.05 94.16 94.12 1.800 16.50 28.18 27.6 27.6
9955.04 93.50 93.10 1.800 16.45 28.90 27.4 27.9
9960.01 93.73 93.61 1.800 16.39 28.16 27.4 27.9
9965.15 92.94 94.02 1.800 16.41 27.10 27.3 28.0
9970.12 93.40 93.21 1.800 16.45 28.90 27.3 27.9
9975.08 93.18 93.09 1.800 16.38 28.77 27.4 27.7
9980.04 93.81 93.80 1.800 16.40 28.49 27.3 28.0
9985.01 93.13 93.76 1.800 16.42 28.33 27.4 27.9
9990.00 93.37 93.07 1.800 16.48 29.30 27.5 27.8
9995.12 93.81 93.70 1.800 16.36 28.20 27.5 28.1
10000.10 93.09 93.63 1.800 16.47 28.56 27.4 27.7
10005.08 93.36 93.05 1.879 16.44 29.15 27.4 27.8
10010.06 93.64 93.51 1.879 16.27 30.36 27.5 28.0
10015.05 94.12 93.56 1.879 16.26 32.09 27.5 27.6
10020.03 93.16 93.76 1.879 16.22 30.63 27.5 27.8
10025.02 94.21 94.18 1.879 16.17 31.48 27.5 27.7
10030.13 94.75 94.16 1.879 16.27 31.83 27.7 28.0
10035.10 94.09 93.95 1.879 16.12 31.40 27.6 28.2
10040.06 94.21 94.40 1.879 16.15 30.68 27.5 27.9
10045.04 94.59 93.85 1.879 16.18 31.45 27.5 27.6
10050.01 94.13 94.64 1.879 16.34 31.81 27.5 27.9
10055.00 94.57 94.77 1.879 16.17 31.45 27.4 28.3
10060.13 94.91 94.98 1.879 16.32 32.22 27.5 28.0
10065.10 95.16 95.15 1.879 16.24 31.91 27.5 27.7
10070.07 95.17 95.18 1.879 16.14 31.70 27.6 27.7
10075.05 95.24 95.24 1.879 16.21 31.91 27.8 28.0
10080.03 95.02 95.05 1.879 16.23 31.66 27.4 28.0
10085.04 95.87 95.85 1.879 16.17 31.55 27.5 27.7
10090.17 95.32 95.89 1.879 16.21 31.99 27.4 27.9
10095.01 95.80 95.46 1.879 16.22 31.48 27.6 27.8
10100.13 96.32 96.22 1.879 16.22 30.96 27.5 28.1
10105.11 95.70 95.63 1.879 16.16 30.61 27.6 27.9
10110.09 96.06 96.06 1.879 16.24 30.81 27.6 28.0
10115.06 95.78 95.59 1.879 16.26 30.94 27.7 28.1
10120.02 96.01 96.19 1.879 16.20 30.20 27.6 27.8
10125.01 96.46 95.64 1.879 16.12 31.40 27.6 27.8
10130.13 94.89 96.39 1.879 16.13 31.14 27.6 27.7
10135.09 97.49 97.20 1.879 16.23 31.34 27.5 27.9
10140.07 96.78 96.13 1.879 16.31 31.62 27.7 27.7
10145.03 95.82 96.35 1.879 16.19 31.13 27.5 27.9
10150.02 96.33 96.83 1.879 16.23 30.56 27.5 27.7
10155.00 97.05 96.65 1.879 16.24 31.37 27.7 28.2
10160.11 96.65 96.47 1.879 16.33 31.93 27.6 28.1
10165.08 96.78 95.80 1.879 16.23 30.91 27.7 28.0
10170.06 96.51 96.98 1.879 16.17 30.46 27.5 27.8
10175.04 96.65 96.86 1.879 16.23 31.52 27.5 27.9
10180.03 97.15 96.36 1.879 16.24 30.95 27.6 28.1
10185.02 95.96 96.59 1.879 16.30 31.28 27.5 28.0
10190.01 96.97 97.15 1.879 16.29 30.92 27.6 28.0
10195.00 96.53 96.60 1.879 16.21 31.62 27.5 28.1
10200.12 96.67 96.71 1.879 16.29 31.41 27.5 27.5
10205.09 97.33 96.44 1.879 16.23 31.19 27.5 27.8
10210.07 96.74 97.28 1.879 16.29 31.12 27.6 27.7
10215.13 96.61 96.79 1.879 16.32 31.52 27.7 28.0
10220.10 96.77 96.86 1.879 16.24 30.86 27.6 27.8
10225.07 97.35 97.42 1.879 16.23 31.58 27.5 28.0
10230.06 96.72 96.77 1.879 16.27 31.80 27.6 27.9
10235.04 96.77 96.71 1.879 16.23 31.02 27.5 27.8
10240.02 97.35 97.36 1.879 16.24 30.65 27.6 27.7
10245.00 97.68 96.74 1.879 16.32 31.84 27.5 27.9
10250.12 96.90 96.79 1.879 16.32 31.60 27.5 27.9
10255.09 96.32 97.39 1.879 16.21 30.73 27.5 28.0
10260.06 97.11 97.59 1.879 16.19 31.96 27.5 27.8
10265.04 97.50 96.82 1.879 16.21 32.01 27.7 27.8
10270.03 97.08 96.79 1.879 16.22 31.16 27.5 27.7
10275.15 96.58 97.13 1.879 16.25 30.59 27.3 27.8
10280.12 97.34 97.52 1.879 16.20 31.19 27.4 27.6
10285.09 97.56 97.19 1.879 16.11 31.28 27.4 27.8
10290.05 96.91 96.77 1.879 16.22 31.51 27.5 27.9
10295.02 96.82 97.24 1.879 16.30 30.96 27.4 27.7
10300.02 97.21 97.50 1.879 16.17 31.15 27.6 27.7
10305.14 97.54 96.70 1.879 16.32 31.55 27.7 27.8
10310.10 97.71 97.36 1.879 16.18 31.04 27.7 27.8
10315.08 96.89 97.62 1.879 16.24 31.59 27.6 27.7
10320.05 96.87 97.22 1.879 16.28 31.20 27.4 28.0
10325.03 97.46 97.57 1.879 16.28 31.21 27.5 27.6
10330.01 97.69 97.71 1.879 16.35 31.77 27.6 27.7
10335.14 97.75 96.89 1.879 16.27 31.54 27.6 28.3
10340.15 96.59 97.11 1.879 16.19 31.11 27.5 28.0
10345.13 97.48 97.07 1.879 16.23 31.03 27.5 27.9
10350.09 97.05 97.49 1.879 16.18 30.37 27.4 27.9
10355.06 97.55 96.88 1.879 16.29 32.02 27.5 28.1
10360.04 97.70 97.44 1.879 16.32 31.00 27.5 28.0
10365.04 96.80 97.55 1.879 16.23 30.66 27.6 27.7
10370.02 97.35 97.07 1.879 16.21 31.27 27.7 27.7
10375.00 97.02 97.48 1.879 16.17 31.27 27.6 28.1
10380.12 97.47 97.67 1.879 16.24 31.48 27.5 27.9
10385.10 97.68 96.87 1.879 16.20 31.71 27.6 27.9
10390.08 97.80 97.39 1.879 16.24 31.30 27.7 27.8
10395.06 96.93 97.65 1.879 16.23 31.34 27.5 27.8
10400.04 96.90 97.20 1.879 16.28 30.74 27.4 27.9
10405.02 97.53 97.65 1.879 16.25 30.53 27.6 27.7
10410.13 97.72 97.78 1.879 16.36 31.55 27.6 27.7
10415.11 97.78 96.89 1.879 16.21 31.72 27.6 27.8
10420.09 97.80 97.40 1.879 16.23 31.92 27.8 28.2
10425.06 96.32 97.04 1.879 16.26 31.24 27.4 28.0
10430.04 97.17 97.48 1.879 16.27 30.11 27.5 27.9
10435.02 97.55 97.68 1.879 16.37 31.17 27.6 27.9
10440.00 97.73 97.74 1.879 16.30 31.41 27.5 27.8
10445.11 97.78 97.20 1.879 16.21 31.95 27.6 27.8
10450.09 96.90 96.68 1.879 16.33 30.83 27.5 28.0
10455.04 96.94 97.38 1.879 16.27 30.44 27.5 27.9
10460.04 97.31 97.49 1.879 16.23 31.38 27.5 27.6
10465.18 97.46 97.57 1.879 16.20 31.21 27.5 27.7
10470.01 97.65 97.74 1.879 16.26 31.80 27.4 27.9
10475.13 97.77 96.86 1.879 16.28 31.43 27.5 27.9
10480.10 96.90 97.38 1.879 16.21 30.72 27.5 27.9
10485.08 96.82 97.01 1.879 16.20 31.46 27.5 27.8
10490.06 97.49 97.53 1.879 16.33 31.64 27.7 28.1
10495.00 97.14 97.14 1.879 16.20 31.30 27.5 27.8
10500.12 97.57 97.00 1.879 16.29 31.44 27.5 27.9
10505.10 97.11 96.61 1.879 16.25 31.50 27.6 27.9
10510.07 97.50 97.30 1.879 16.19 31.00 27.5 28.3
10515.05 96.85 97.64 1.879 16.19 31.66 27.5 28.1
10520.04 97.27 97.65 1.879 16.24 31.23 27.5 27.6
10525.03 96.79 96.98 1.879 16.24 30.89 27.6 27.6
10530.03 97.29 97.34 1.879 16.24 31.06 27.6 27.7
10535.00 97.67 96.82 1.879 16.27 31.00 27.6 27.8
10540.12 96.86 97.38 1.879 16.22 32.00 27.7 28.1
10545.10 96.92 97.13 1.879 16.20 31.11 27.6 27.7
10550.07 97.41 97.53 1.879 16.35 30.92 27.6 27.8
10555.06 97.65 96.79 1.879 16.29 31.11 27.6 27.8
10560.04 96.87 97.33 1.879 16.20 31.20 27.6 27.5
10565.01 96.85 97.06 1.879 16.13 30.58 27.7 27.9
10570.13 97.48 96.67 1.879 16.26 32.14 27.7 28.1
10575.09 96.47 97.08 1.879 16.23 31.37 27.6 28.0
10580.05 97.21 96.60 1.879 16.22 31.51 27.5 27.8
10585.03 97.37 97.19 1.879 16.29 31.62 27.7 27.7
10590.16 96.94 97.45 1.879 16.33 30.99 27.6 27.9
10595.13 96.77 97.38 1.879 16.41 31.57 27.7 28.2
10600.09 97.47 97.50 1.879 16.26 30.72 27.6 28.1
10605.05 96.18 96.20 1.879 16.16 30.50 27.6 27.9
10610.03 96.72 97.07 1.879 16.28 32.01 27.6 27.8
10615.00 97.35 96.92 1.879 16.15 31.29 27.5 28.2
10620.12 97.62 96.52 1.879 16.27 31.48 27.6 28.2
10625.10 96.24 97.25 1.879 16.17 31.50 27.5 27.8
10630.08 97.13 97.44 1.879 16.22 31.25 27.4 28.0
10635.04 96.69 96.82 1.879 16.25 30.71 27.5 28.4
10640.02 96.79 96.85 1.879 16.34 31.10 27.6 28.3
10645.00 97.27 96.41 1.879 16.31 31.77 27.7 28.2
10650.00 96.49 96.99 1.879 16.15 30.68 27.4 27.8
10655.12 96.73 96.93 1.879 16.17 31.30 27.6 28.1
10660.09 97.36 96.60 1.879 16.21 31.26 27.5 27.9
10665.07 96.73 96.68 1.879 16.29 31.10 27.6 27.9
10670.05 96.84 96.53 1.879 16.24 30.79 27.5 27.8
10675.04 96.37 97.09 1.879 16.17 31.15 27.6 28.5
10680.02 97.14 96.32 1.879 16.29 31.55 27.4 28.0
10685.00 96.94 96.92 1.879 16.20 31.53 27.4 28.0
10690.13 96.62 97.50 1.879 16.22 31.45 27.7 27.8
10695.09 96.81 97.18 1.879 15.99 31.15 27.7 28.1
10700.06 96.43 96.60 1.879 15.43 30.51 27.5 27.9
10705.05 96.74 97.38 1.879 15.69 30.34 27.6 27.7
10710.02 96.54 96.24 1.879 15.63 30.91 27.5 27.9
10715.15 97.23 97.09 1.879 15.54 30.21 27.6 27.9
10720.11 96.18 96.11 1.879 15.57 30.74 27.5 28.6
10725.08 96.56 95.61 1.879 15.76 30.38 27.6 27.9
10730.06 96.96 96.86 1.879 15.58 30.65 27.6 27.8
10735.04 95.86 95.84 1.879 15.62 30.67 27.6 28.5
10740.01 97.07 97.08 1.879 15.57 29.87 27.4 27.7
10745.12 96.08 96.50 1.879 15.67 31.10 27.5 27.9
10750.08 96.72 95.86 1.879 15.53 30.59 27.4 28.0
10755.04 95.90 96.40 1.879 15.55 30.40 27.6 27.7
10760.01 96.09 96.35 1.879 15.54 30.51 27.6 27.8
10765.13 95.65 95.98 1.879 15.62 30.42 27.5 27.8
10770.08 96.36 95.60 1.879 15.54 29.95 27.3 27.8
10775.05 96.35 96.95 1.879 15.59 30.31 27.5 28.0
10780.04 95.70 95.92 1.879 15.53 30.21 27.5 27.9
10785.02 96.24 95.45 1.879 15.54 30.33 27.5 27.8
10790.14 95.71 96.85 1.879 15.50 30.28 27.4 27.8
10795.10 96.08 96.02 1.879 15.52 30.65 27.5 27.8
10800.07 95.67 95.67 1.879 15.63 30.99 27.5 27.6
10805.04 95.48 95.46 1.879 15.57 31.35 27.6 27.7
10810.02 96.19 95.30 1.879 15.51 30.27 27.7 27.9
10815.14 95.72 95.32 1.879 15.62 30.77 27.4 28.1
10820.11 96.05 95.86 1.879 15.52 30.54 27.4 27.7
10825.08 95.59 96.41 1.879 15.53 30.61 27.5 27.9
10830.06 95.32 95.69 1.879 15.52 30.44 27.4 28.1
10835.04 95.20 95.39 1.879 15.57 31.49 27.6 27.8
10840.18 95.10 96.02 1.879 15.60 30.91 27.7 27.9
10845.00 95.29 95.02 1.879 15.58 30.69 27.6 28.0
10850.09 95.35 95.07 1.879 15.62 30.98 27.5 27.8
10855.08 95.87 95.13 1.879 15.51 30.62 27.6 27.8
10860.03 95.55 95.20 1.879 15.52 30.23 27.7 28.0
10865.15 95.45 95.28 1.879 15.52 30.72 27.7 27.9
10870.10 95.37 95.34 1.879 15.53 30.60 27.5 28.0
10875.06 95.40 95.39 1.879 15.54 30.96 27.4 28.1
10880.02 95.37 95.35 1.879 15.55 30.28 27.7 27.8
10885.13 95.31 95.28 1.879 15.57 30.21 27.5 27.8
10890.11 95.28 95.27 1.879 15.39 30.18 27.7 27.8
10895.08 95.28 95.30 1.879 15.48 30.77 27.4 28.0
10900.05 95.26 95.31 1.879 15.50 30.81 27.9 28.1
10905.02 95.31 95.38 1.879 15.51 30.40 27.5 27.9
10910.11 94.56 95.50 1.879 15.52 30.94 27.5 28.0
10915.09 95.11 95.44 1.879 15.51 30.70 27.6 27.8
10920.04 95.27 95.47 1.879 15.47 30.28 27.6 28.1
10925.02 95.25 95.38 1.879 15.58 31.69 27.6 28.1
10930.13 95.29 95.36 1.879 15.48 30.63 27.4 27.9
10935.10 95.30 95.34 1.879 15.49 30.17 27.5 27.7
10940.07 95.26 95.31 1.879 15.46 30.78 27.6 27.9
10945.05 95.20 95.23 1.879 15.42 30.60 27.4 28.0
10950.02 95.18 95.17 1.879 15.47 30.62 27.7 27.7
10955.00 95.16 95.15 1.879 15.51 30.50 27.7 28.1
10960.10 95.23 95.22 1.879 15.43 29.57 27.7 27.8
10965.14 93.91 94.39 1.879 15.56 31.10 27.5 27.9
10970.12 95.30 95.03 1.879 15.50 31.20 27.7 27.9
10975.06 95.44 95.19 1.879 15.52 30.13 27.6 28.0
10980.04 95.23 95.11 1.879 15.50 30.33 27.4 28.0
10985.02 95.20 95.12 1.879 15.53 30.63 27.7 27.9
10990.00 95.16 95.17 1.879 15.36 30.42 27.6 27.8
10995.12 95.14 95.15 1.879 15.45 30.10 27.6 28.1
11000.10 95.16 95.18 1.879 15.47 30.28 27.6 27.9
11005.08 95.17 95.18 1.879 15.54 30.48 27.7 28.1
11010.06 95.16 95.17 1.879 15.45 30.05 27.6 27.9
11015.04 95.41 94.48 1.879 15.50 30.65 27.6 27.7
11020.12 94.93 94.55 1.879 15.49 30.59 27.8 27.6
11025.09 95.01 94.88 1.879 15.59 30.73 27.6 27.8
11030.07 95.09 95.04 1.879 15.51 31.15 27.6 27.9
11035.05 95.00 95.09 1.879 15.53 30.85 27.6 28.0
11040.05 94.93 94.95 1.879 15.51 29.94 27.5 28.0
11045.03 94.90 94.92 1.879 15.65 30.51 27.6 27.8
11050.02 95.02 95.01 1.879 15.54 30.72 27.7 28.2
11055.12 95.17 95.15 1.879 15.60 30.42 27.6 27.9
11060.10 95.20 95.24 1.879 15.58 31.27 27.7 27.7
11065.05 95.23 95.25 1.879 15.61 31.02 27.5 27.8
11070.02 94.42 95.30 1.879 15.51 30.56 27.7 27.7
11075.14 95.59 95.13 1.879 15.63 31.19 27.6 28.0
11080.12 94.47 95.10 1.879 15.47 30.34 27.5 28.0
11085.11 94.89 95.17 1.879 15.61 31.16 27.5 27.8
11090.14 95.33 96.06 1.879 15.50 30.12 27.5 27.8
11095.11 95.49 94.39 1.879 15.48 30.60 27.3 28.0
11100.07 95.30 94.86 1.879 15.56 30.50 27.5 28.3
11105.05 95.11 94.94 1.879 15.55 30.43 27.6 28.0
11110.04 95.19 95.10 1.879 15.56 30.41 27.8 27.8
11115.01 94.35 95.21 1.879 15.52 30.09 27.5 27.9
11120.13 94.83 95.19 1.879 15.50 30.39 27.6 28.7
11125.11 95.06 95.24 1.879 15.60 31.26 27.7 27.9
11130.08 95.14 95.21 1.879 15.48 31.67 27.6 28.2
11135.06 95.16 95.23 1.879 15.56 31.21 27.6 28.2
11140.04 95.03 95.07 1.879 15.42 30.18 27.7 28.1
11145.01 95.18 95.17 1.879 15.54 30.86 27.6 28.0
11150.13 95.24 95.25 1.879 15.43 30.31 27.6 27.9
11155.09 95.24 95.30 1.879 15.50 29.69 27.4 28.3
11160.04 95.30 95.29 1.879 15.47 30.22 27.6 28.2
11165.01 94.70 94.65 1.879 15.50 29.96 27.5 27.8
11170.13 94.95 95.15 1.000 16.31 17.69 27.7 27.8
11175.04 94.78 94.86 1.000 17.20 1.88 28.2 27.9
11180.02 93.50 93.59 1.000 17.27 0.20 28.2 27.8
11185.01 92.97 92.93 1.000 17.24 -0.01 28.3 27.8
11190.13 90.68 90.65 1.000 17.22 -0.03 28.2 27.7
11195.11 88.67 89.13 1.000 17.19 -0.02 28.2 27.8
11200.09 88.36 87.21 1.000 17.16 -0.02 28.3 27.7
11205.06 86.17 86.01 1.000 17.13 -0.01 28.2 27.9
11210.02 85.31 85.89 1.000 17.10 -0.01 28.4 27.8
11215.15 84.16 83.75 1.000 17.07 -0.01 28.2 27.8
11220.10 81.94 82.20 1.000 17.05 -0.01 28.2 27.8
11225.07 79.79 80.56 1.000 17.02 -0.00 28.2 27.7
11230.05 79.19 79.72 1.000 17.01 0.00 28.3 27.7
11235.13 78.86 79.17 1.000 17.04 -0.01 28.1 27.9
11240.07 77.46 77.07 1.000 17.08 -0.00 28.2 27.8
11245.04 75.45 75.79 1.000 17.12 -0.01 28.4 27.8
11250.01 75.45 74.93 1.000 17.14 -0.00 28.2 27.8
11255.07 74.17 74.34 1.000 17.14 -0.01 28.1 27.9
11260.04 72.70 72.75 1.000 17.14 -0.01 28.3 27.7
11265.03 71.76 71.55 1.000 17.14 -0.01 28.3 27.7
11270.14 71.18 71.55 1.000 17.14 -0.00 28.1 27.9
11275.06 69.88 70.03 1.000 17.14 -0.00 28.2 28.0
11280.03 69.06 68.55 1.000 17.14 -0.00 28.3 28.0
11285.00 68.49 68.55 1.000 17.14 -0.00 28.2 27.9
11290.06 66.76 67.21 1.000 17.14 -0.00 28.3 27.9
11295.04 66.14 65.93 1.000 17.14 -0.00 28.3 27.8
11300.00 65.74 65.93 1.000 17.14 -0.00 28.1 28.0
11305.06 64.65 64.33 1.000 17.14 -0.00 28.2 27.8
11310.03 64.65 63.72 1.000 17.14 -0.00 28.2 27.9
11315.10 63.14 63.35 1.000 17.14 -0.00 28.2 27.8
11320.05 61.97 62.29 1.000 17.14 0.00 28.2 28.0
11325.02 61.97 62.29 1.000 17.14 0.00 28.2 27.8
11330.08 60.72 60.63 1.000 17.14 0.00 28.3 27.8
11335.06 60.72 60.17 1.000 17.14 0.00 28.2 27.8
11340.15 59.31 59.85 1.000 17.14 0.00 28.3 28.0
11345.11 58.97 58.43 1.000 17.14 -0.00 28.3 27.7
11350.07 58.41 58.43 1.000 17.14 -0.00 28.2 27.9
11355.13 57.14 57.05 1.000 17.14 0.00 28.2 27.9
11360.10 57.14 57.05 1.000 17.14 0.00 28.2 28.0
11365.01 56.24 56.21 1.000 17.14 0.00 28.1 27.9
11370.12 56.24 56.21 1.000 17.14 -0.00 28.2 28.0
11375.04 55.06 55.06 1.000 17.14 -0.00 28.2 28.0
11380.01 55.06 54.37 1.000 17.14 -0.00 28.1 27.9
11385.07 53.91 54.20 1.000 17.14 0.00 28.3 27.9
11390.03 53.91 53.52 1.000 17.14 0.00 28.3 27.9
11395.11 52.66 52.79 1.000 17.14 0.00 28.4 27.9
11400.07 52.20 52.30 1.000 17.14 0.00 28.2 27.8
11405.02 51.90 51.96 1.000 17.14 0.00 28.2 28.0
11410.12 51.22 51.51 1.000 17.14 0.00 28.3 27.9
11415.06 50.76 50.96 1.000 17.14 -0.00 28.3 28.0
11420.01 50.76 50.37 1.000 17.14 -0.00 28.2 27.9
11425.08 49.88 49.98 1.000 17.14 0.00 28.2 27.9
11430.04 49.88 49.25 1.000 17.14 0.00 28.3 28.0
11435.12 48.71 48.99 1.000 17.14 0.01 28.3 27.9
11440.08 48.71 48.59 1.000 17.14 0.01 28.3 28.0
11445.01 48.00 47.91 1.000 17.14 0.02 28.2 28.0
11450.12 48.00 47.91 1.000 17.14 0.01 28.2 28.0
11455.04 46.82 46.98 1.000 17.14 0.02 28.2 28.1
11460.04 46.82 46.98 1.000 17.14 0.02 28.2 28.0
11465.14 46.43 46.03 1.000 17.14 0.02 28.2 27.9
11470.10 45.97 46.03 1.000 17.14 0.02 28.2 27.9
11475.03 45.35 45.59 1.000 17.14 0.02 28.3 28.0
11480.13 45.13 45.27 1.000 17.14 0.02 28.2 27.8
11485.07 45.13 44.72 1.000 17.14 0.01 28.2 28.0
11490.01 44.09 44.34 1.000 17.14 0.01 28.3 28.0
11495.11 44.09 44.34 1.000 17.14 0.01 28.3 27.9
11500.02 43.23 43.35 1.000 17.14 0.01 28.3 27.8
11505.13 43.23 43.35 1.000 17.14 0.01 28.3 28.0
11510.04 42.84 42.91 1.000 17.14 0.01 28.3 27.9
11515.13 42.41 42.44 1.000 17.14 0.01 28.2 28.1
11520.07 42.41 42.44 1.000 17.14 0.00 28.3 28.0
11525.13 41.65 41.64 1.000 17.14 0.00 28.3 28.0
11530.09 41.65 41.64 1.000 17.14 0.01 28.2 28.0
11535.00 41.14 41.29 1.000 17.14 0.01 28.3 27.9
11540.09 40.77 40.88 1.000 17.14 0.01 28.3 27.9
11545.03 40.77 40.88 1.000 17.14 0.01 28.2 28.1
11550.09 39.87 39.92 1.000 17.14 0.01 28.2 28.0
11555.07 39.87 39.92 1.000 17.14 0.00 28.3 28.0
11560.12 39.50 39.53 1.000 17.14 0.00 28.3 28.1
11565.05 39.12 39.27 1.000 17.14 0.01 28.3 27.9
11570.14 39.12 39.27 1.000 17.14 0.01 28.3 28.0
11575.05 38.69 38.34 1.000 17.14 0.01 28.3 28.1
11580.03 38.40 38.34 1.000 17.14 0.01 28.2 28.0
11585.11 38.40 38.34 1.000 17.14 0.01 28.3 28.0
11590.13 37.47 37.56 1.000 17.14 0.01 28.3 27.9
11595.11 37.47 37.56 1.000 17.14 0.01 28.2 28.0
11600.00 37.47 37.29 1.000 17.14 0.00 28.2 27.9
11605.06 36.74 36.86 1.000 17.14 0.00 28.2 28.1
11610.01 36.74 36.86 1.000 17.14 0.01 28.3 27.9
11615.06 36.34 36.42 1.000 17.14 0.01 28.3 27.9
11620.01 36.08 36.13 1.000 17.14 0.01 28.4 28.0
11625.10 36.08 36.13 1.000 17.14 0.01 28.4 28.1
11630.02 35.65 35.39 1.000 17.14 0.01 28.3 27.9
11635.12 35.25 35.39 1.000 17.14 0.01 28.2 28.1
11640.05 35.25 35.39 1.000 17.14 0.00 28.3 28.0
11645.11 34.87 34.67 1.000 17.14 0.00 28.2 28.1
11650.07 34.61 34.67 1.000 17.14 0.00 28.3 27.9
11655.00 34.61 34.67 1.000 17.14 0.01 28.2 27.9
11660.05 34.12 33.91 1.000 17.14 0.01 28.3 28.1
11665.00 33.80 33.91 1.000 17.14 0.01 28.4 28.0
11670.08 33.80 33.91 1.000 17.14 0.01 28.4 27.9
11675.00 33.48 33.55 1.000 17.14 0.01 28.2 28.0
11680.08 33.17 33.20 1.000 17.14 0.01 28.2 28.0
11685.02 33.17 33.20 1.000 17.14 0.02 28.3 28.1
11690.07 32.75 32.77 1.000 17.14 0.02 28.2 28.0
11695.04 32.47 32.48 1.000 17.14 0.02 28.3 28.0
11700.12 32.47 32.48 1.000 17.14 0.02 28.3 27.9
11705.04 32.47 32.09 1.000 17.14 0.02 28.3 28.0
11710.11 31.75 31.84 1.000 17.14 0.02 28.2 28.0
11715.14 31.75 31.84 1.000 17.14 0.02 28.3 28.0
11720.05 31.75 31.44 1.000 17.14 0.02 28.3 28.0
11725.12 31.14 31.18 1.000 17.14 0.02 28.3 28.0
11730.08 31.14 31.18 1.000 17.14 0.02 28.2 28.0
11735.00 31.14 31.18 1.000 17.14 0.01 28.2 28.0
11740.06 30.74 30.56 1.000 17.14 0.01 28.3 28.0
11745.02 30.39 30.56 1.000 17.14 0.01 28.3 28.1
11750.10 30.39 30.56 1.000 17.14 0.01 28.3 28.3
11755.01 30.39 30.19 1.000 17.14 0.01 28.4 27.9
11760.07 29.84 29.88 1.000 17.14 0.01 28.4 28.1
11765.04 29.84 29.88 1.000 17.14 0.01 28.4 28.0
11770.09 29.84 29.88 1.000 17.14 0.01 28.4 28.1
11775.00 29.56 29.25 1.000 17.14 0.01 28.4 28.0
11780.09 29.21 29.25 1.000 17.14 0.01 28.4 28.1
11785.01 29.21 29.25 1.000 17.14 0.01 28.3 27.9
11790.06 29.21 28.87 1.000 17.14 0.01 28.3 28.1
11795.13 28.56 28.60 1.000 17.14 0.01 28.3 28.1
11800.08 28.56 28.60 1.000 17.14 0.01 28.3 28.1
11805.00 28.56 28.60 1.000 17.14 0.01 28.4 28.2
11810.06 28.24 28.26 1.000 17.14 0.01 28.4 28.2
11815.01 27.95 28.04 1.000 17.14 0.01 28.3 28.1
11820.09 27.95 28.04 1.000 17.14 0.01 28.4 28.1
11825.00 27.95 28.04 1.000 17.14 0.01 28.3 28.2
11830.06 27.55 27.37 1.000 17.14 0.01 28.3 28.1
11835.02 27.28 27.37 1.000 17.14 0.01 28.4 28.2
11840.14 27.28 27.37 1.000 17.14 0.01 28.5 28.0
11845.06 27.28 27.06 1.000 17.14 0.00 28.2 28.0
11850.13 26.75 26.79 1.000 17.14 0.01 28.4 28.1
11855.07 26.75 26.79 1.000 17.14 0.01 28.4 28.1
11860.13 26.75 26.79 1.000 17.14 0.01 28.3 28.0
11865.04 26.75 26.44 1.000 17.14 0.00 28.4 28.1
11870.11 26.08 26.21 1.000 17.14 0.00 28.2 28.2
11875.06 26.08 26.21 1.000 17.14 0.00 28.3 28.1
11880.14 26.08 26.21 1.000 17.14 0.00 28.3 28.0
11885.05 26.08 25.93 1.000 17.14 0.01 28.3 28.2
11890.12 25.57 25.67 1.000 17.14 0.01 28.4 28.1
11895.08 25.57 25.67 1.000 17.14 0.01 28.2 28.1
11900.14 25.57 25.67 1.000 17.14 0.01 28.3 28.0
11905.05 25.57 25.33 1.000 17.14 0.00 28.2 28.1
11910.12 24.99 25.04 1.000 17.14 0.01 28.4 28.0
11915.08 24.99 25.04 1.000 17.14 0.01 28.3 28.0
11920.13 24.99 25.04 1.000 17.14 0.01 28.4 28.1
11925.05 24.99 24.72 1.000 17.14 0.01 28.4 28.1
11930.12 24.69 24.47 1.000 17.14 0.01 28.4 28.1
11935.06 24.45 24.47 1.000 17.14 0.02 28.3 28.1
11940.14 24.45 24.47 1.000 17.14 0.02 28.3 28.2
11945.05 24.45 24.47 1.000 17.14 0.02 28.4 28.2
11950.11 24.06 23.90 1.000 17.14 0.02 28.4 28.1
11955.06 23.81 23.90 1.000 17.14 0.02 28.3 28.1
11960.14 23.81 23.90 1.000 17.14 0.02 28.3 28.2
11965.14 23.81 23.90 1.000 17.14 0.02 28.3 28.1
11970.05 23.56 23.57 1.000 17.14 0.02 28.3 28.2
11975.00 23.29 23.30 1.000 17.14 0.02 28.3 28.2
11980.08 23.29 23.30 1.000 17.14 0.02 28.3 28.3
11985.13 23.29 23.30 1.000 17.14 0.01 28.3 28.1
11990.05 23.29 23.00 1.000 17.14 0.01 28.3 28.1
11995.12 22.94 22.80 1.000 17.14 0.01 28.4 28.0
12000.07 22.71 22.80 1.000 17.14 0.01 28.4 28.2
12005.00 22.71 22.80 1.000 17.14 0.01 28.4 28.1
12010.05 22.71 22.80 1.000 17.14 0.01 28.4 28.1
12015.11 22.71 22.52 1.000 17.14 0.01 28.3 28.2
12020.04 22.22 22.29 1.000 17.14 0.01 28.3 28.1
12025.01 22.22 22.29 1.000 17.14 0.01 28.4 28.2
12030.06 22.22 22.29 1.000 17.14 0.01 28.4 28.2
12035.13 22.22 22.29 1.000 17.14 0.01 28.4 28.2
12040.04 21.91 21.96 1.000 17.14 0.01 28.4 28.2
12045.13 21.66 21.69 1.000 17.14 0.01 28.4 28.1
12050.07 21.66 21.69 1.000 17.14 0.01 28.4 28.0
12055.13 21.66 21.69 1.000 17.14 0.01 28.4 28.0
12060.05 21.66 21.43 1.000 17.14 0.01 28.5 28.2
12065.13 21.40 21.20 1.000 17.14 0.01 28.3 28.3
12070.07 21.15 21.20 1.000 17.14 0.01 28.3 28.2
12075.01 21.15 21.20 1.000 17.14 0.01 28.3 28.2
12080.06 21.15 21.20 1.000 17.14 0.01 28.3 28.3
12085.12 21.15 20.90 1.000 17.14 0.01 28.4 28.2
12090.13 20.80 20.67 1.000 17.14 0.01 28.3 28.1
12095.08 20.57 20.67 1.000 17.14 0.01 28.3 28.2
12100.13 20.57 20.67 1.000 17.14 0.01 28.3 28.2
12105.04 20.57 20.67 1.000 17.14 0.01 28.4 28.2
12110.10 20.57 20.38 1.000 17.14 0.01 28.4 28.3
12115.02 20.33 20.12 1.000 17.14 0.01 28.4 28.2
12120.12 20.12 20.12 1.000 17.14 0.01 28.4 28.2
12125.04 20.12 20.12 1.000 17.14 0.01 28.4 28.2
12130.10 20.12 20.12 1.000 17.14 0.01 28.3 28.2
12135.01 20.12 20.12 1.000 17.14 0.01 28.3 28.0
12140.07 19.80 19.83 1.000 17.14 0.01 28.4 28.0
12145.01 19.55 19.65 1.000 17.14 0.01 28.4 28.1
12150.09 19.55 19.65 1.000 17.14 0.02 28.4 28.1
12155.01 19.55 19.65 1.000 17.14 0.01 28.5 28.2
12160.06 19.55 19.65 1.000 17.14 0.00 28.4 28.3
12165.12 19.55 19.39 1.000 17.14 0.01 28.4 28.2
12170.05 19.28 19.14 1.000 17.14 0.01 28.3 28.0
12175.01 19.07 19.14 1.000 17.14 0.01 28.3 28.1
12180.07 19.07 19.14 1.000 17.14 0.01 28.3 28.2
12185.13 19.07 19.14 1.000 17.14 0.01 28.2 28.2
12190.04 19.07 18.81 1.000 17.14 0.02 28.3 28.2
12195.11 18.76 18.81 1.000 17.14 0.02 28.4 28.3
12200.04 18.53 18.59 1.000 17.14 0.02 28.4 28.3
12205.13 18.53 18.59 1.000 17.14 0.02 28.4 28.3
12210.04 18.53 18.59 1.000 17.14 0.02 28.2 28.1
12215.15 18.53 18.59 1.000 17.14 0.02 28.4 28.1
12220.06 18.53 18.34 1.000 17.14 0.02 28.4 28.1
12225.12 18.27 18.11 1.000 17.14 0.02 28.3 28.2
12230.05 18.08 18.11 1.000 17.14 0.02 28.4 28.2
12235.14 18.08 18.11 1.000 17.14 0.02 28.3 28.3
12240.05 18.08 18.11 1.000 17.14 0.01 28.4 28.2
12245.11 18.08 18.11 1.000 17.14 0.01 28.4 28.2
12250.04 17.80 17.82 1.000 17.14 0.01 28.4 28.2
12255.12 17.80 17.60 1.000 17.14 0.01 28.3 28.1
12260.04 17.58 17.60 1.000 17.14 0.01 28.4 28.3
12265.11 17.58 17.60 1.000 17.14 0.01 28.3 28.2
12270.04 17.58 17.60 1.000 17.14 0.01 28.3 28.3
12275.10 17.58 17.60 1.000 17.14 0.02 28.2 28.2
12280.01 17.31 17.35 1.000 17.14 0.01 28.4 28.0
12285.10 17.31 17.15 1.000 17.14 0.01 28.4 28.2
12290.04 17.09 17.15 1.000 17.14 0.01 28.4 28.3
12295.11 17.09 17.15 1.000 17.14 0.01 28.4 28.3
12300.03 17.09 17.15 1.000 17.14 0.01 28.4 28.1
12305.10 17.09 17.15 1.000 17.14 0.01 28.4 28.3
12310.01 17.09 16.85 1.000 17.14 0.01 28.4 28.2
12315.08 16.81 16.63 1.000 17.14 0.01 28.4 28.3
12320.01 16.57 16.63 1.000 17.14 0.01 28.4 28.4
12325.09 16.57 16.63 1.000 17.14 0.01 28.4 28.3
12330.00 16.57 16.63 1.000 17.14 0.01 28.4 28.2
12335.06 16.57 16.63 1.000 17.14 0.01 28.3 28.2
12340.15 16.57 16.39 1.000 17.14 0.02 28.4 28.3
12345.08 16.30 16.18 1.000 17.14 0.01 28.4 28.3
12350.00 16.12 16.18 1.000 17.14 0.01 28.4 28.4
12355.06 16.12 16.18 1.000 17.14 0.01 28.4 28.2
12360.12 16.12 16.18 1.000 17.14 0.01 28.4 28.4
12365.04 16.12 16.18 1.000 17.14 0.01 28.4 28.4
12370.10 16.12 16.18 1.000 17.14 0.01 28.4 28.2
12375.02 15.86 15.87 1.000 17.14 0.01 28.4 28.2
12380.10 15.86 15.66 1.000 17.14 0.02 28.3 28.2
12385.04 15.64 15.66 1.000 17.14 0.02 28.4 28.3
12390.11 15.64 15.66 1.000 17.14 0.02 28.5 28.2
12395.02 15.64 15.66 1.000 17.14 0.01 28.4 28.2
12400.08 15.64 15.66 1.000 17.14 0.01 28.5 28.3
12405.13 15.64 15.42 1.000 17.14 0.02 28.4 28.4
12410.06 15.36 15.42 1.000 17.14 0.01 28.3 28.2
12415.13 15.36 15.22 1.000 17.14 0.01 28.4 28.2
12420.05 15.14 15.22 1.000 17.14 0.01 28.3 28.2
12425.13 15.14 15.22 1.000 17.14 0.01 28.3 28.1
12430.05 15.14 15.22 1.000 17.14 0.02 28.4 28.2
12435.12 15.14 15.22 1.000 17.14 0.02 28.3 28.2
12440.04 15.14 14.93 1.000 17.14 0.02 28.3 28.1
12445.11 14.88 14.93 1.000 17.14 0.02 28.3 28.4
12450.04 14.68 14.72 1.000 17.14 0.02 28.3 28.3
12455.12 14.68 14.72 1.000 17.14 0.02 28.4 28.4
12460.04 14.68 14.72 1.000 17.14 0.03 28.4 28.1
12465.15 14.68 14.72 1.000 17.14 0.02 28.3 28.3
12470.06 14.68 14.72 1.000 17.14 0.02 28.4 28.4
12475.12 14.68 14.72 1.000 17.14 0.02 28.4 28.4
12480.04 14.41 14.46 1.000 17.14 0.02 28.4 28.3
12485.13 14.41 14.22 1.000 17.14 0.01 28.3 28.4
12490.06 14.17 14.22 1.000 17.14 0.01 28.3 28.3
12495.13 14.17 14.22 1.000 17.14 0.01 28.4 28.3
12500.04 14.17 14.22 1.000 17.14 0.01 28.5 28.4
12505.10 14.17 14.22 1.000 17.14 0.01 28.4 28.3
12510.01 14.17 14.22 1.000 17.14 0.02 28.4 28.4
12515.07 14.17 13.95 1.000 17.14 0.01 28.3 28.3
12520.02 13.90 13.75 1.000 17.14 0.02 28.5 28.4
12525.10 13.70 13.75 1.000 17.14 0.01 28.4 28.2
12530.03 13.70 13.75 1.000 17.14 0.01 28.4 28.4
12535.09 13.70 13.75 1.000 17.14 0.01 28.5 28.5
12540.00 13.70 13.75 1.000 17.14 0.02 28.4 28.3
12545.06 13.70 13.75 1.000 17.14 0.02 28.4 28.3
12550.12 13.70 13.75 1.000 17.14 0.01 28.4 28.4
12555.04 13.70 13.48 1.000 17.14 0.01 28.3 28.5
12560.11 13.43 13.27 1.000 17.14 0.01 28.4 28.4
12565.05 13.20 13.27 1.000 17.14 0.02 28.4 28.4
12570.12 13.20 13.27 1.000 17.14 0.01 28.5 28.5
12575.04 13.20 13.27 1.000 17.14 0.01 28.4 28.3
12580.09 13.20 13.27 1.000 17.14 0.01 28.4 28.4
12585.01 13.20 13.27 1.000 17.14 0.02 28.4 28.4
12590.14 13.20 13.27 1.000 17.14 0.01 28.4 28.4
12595.05 13.20 13.00 1.000 17.14 0.01 28.5 28.4
12600.13 12.94 12.80 1.000 17.14 0.02 28.4 28.3
12605.08 12.74 12.80 1.000 17.14 0.02 28.5 28.4
12610.01 12.74 12.80 1.000 17.14 0.01 28.4 28.2
12615.06 12.74 12.80 1.000 17.14 0.01 28.4 28.4
12620.13 12.74 12.80 1.000 17.14 0.01 28.4 28.4
12625.04 12.74 12.80 1.000 17.14 0.01 28.5 28.4
12630.10 12.74 12.80 1.000 17.14 0.01 28.5 28.6
12635.01 12.74 12.53 1.000 17.14 0.02 28.5 28.4
12640.08 12.48 12.53 1.000 17.14 0.02 28.3 28.5
12645.01 12.48 12.30 1.000 17.14 0.01 28.4 28.4
12650.08 12.25 12.30 1.000 17.14 0.02 28.4 28.4
12655.01 12.25 12.30 1.000 17.14 0.01 28.4 28.3
12660.06 12.25 12.30 1.000 17.14 0.01 28.4 28.4
12665.11 12.25 12.30 1.000 17.14 0.01 28.3 28.3
12670.04 12.25 12.30 1.000 17.14 0.01 28.5 28.3
12675.10 12.25 12.30 1.000 17.14 0.02 28.4 28.3
12680.02 12.25 12.02 1.000 17.14 0.01 28.4 28.5
12685.09 11.98 11.81 1.000 17.14 0.02 28.3 28.4
12690.03 11.79 11.81 1.000 17.14 0.02 28.4 28.5
12695.10 11.79 11.81 1.000 17.14 0.03 28.4 28.4
12700.02 11.79 11.81 1.000 17.14 0.02 28.4 28.4
12705.08 11.79 11.81 1.000 17.14 0.02 28.4 28.5
12710.00 11.79 11.81 1.000 17.14 0.02 28.5 28.4
12715.13 11.79 11.81 1.000 17.14 0.02 28.4 28.5
12720.04 11.79 11.81 1.000 17.14 0.03 28.3 28.4
12725.10 11.79 11.54 1.000 17.14 0.02 28.5 28.5
12730.04 11.51 11.54 1.000 17.14 0.02 28.5 28.5
12735.11 11.51 11.33 1.000 17.14 0.02 28.5 28.5
12740.04 11.27 11.33 1.000 17.14 0.01 28.4 28.5
12745.11 11.27 11.33 1.000 17.14 0.01 28.4 28.6
12750.02 11.27 11.33 1.000 17.14 0.01 28.4 28.6
12755.07 11.27 11.33 1.000 17.14 0.01 28.5 28.4
12760.00 11.27 11.33 1.000 17.14 0.01 28.4 28.4
12765.05 11.27 11.33 1.000 17.14 0.01 28.4 28.5
12770.10 11.27 11.05 1.000 17.14 0.02 28.5 28.5
12775.04 11.00 11.05 1.000 17.14 0.01 28.4 28.5
12780.11 11.00 10.83 1.000 17.14 0.01 28.4 28.4
12785.04 10.78 10.83 1.000 17.14 0.01 28.3 28.3
12790.11 10.78 10.83 1.000 17.14 0.01 28.4 28.4
12795.02 10.78 10.83 1.000 17.14 0.01 28.5 28.6
12800.07 10.78 10.83 1.000 17.14 0.01 28.4 28.4
12805.13 10.78 10.83 1.000 17.14 0.01 28.4 28.5
12810.05 10.78 10.83 1.000 17.14 0.01 28.4 28.5
12815.11 10.78 10.83 1.000 17.14 0.01 28.3 28.5
12820.02 10.78 10.56 1.000 17.14 0.01 28.5 28.5
12825.08 10.51 10.56 1.000 17.14 0.01 28.3 28.4
12830.01 10.51 10.34 1.000 17.14 0.01 28.3 28.6
12835.08 10.29 10.34 1.000 17.14 0.01 28.5 28.5
12840.16 10.29 10.34 1.000 17.14 0.01 28.4 28.5
12845.09 10.29 10.34 1.000 17.14 0.01 28.5 28.4
12850.00 10.29 10.34 1.000 17.14 0.01 28.4 28.5
12855.05 10.29 10.34 1.000 17.14 0.01 28.3 28.5
12860.11 10.29 10.34 1.000 17.14 0.01 28.4 28.5
12865.02 10.29 10.34 1.000 17.14 0.01 28.4 28.5
12870.08 10.29 10.34 1.000 17.14 0.01 28.4 28.5
12875.13 10.29 10.04 1.000 17.14 0.01 28.4 28.4
12880.07 9.99 10.04 1.000 17.14 0.01 28.4 28.5
12885.01 9.99 9.83 1.000 17.14 0.02 28.3 28.5
12890.08 9.78 9.83 1.000 17.14 0.02 28.4 28.4
12895.01 9.78 9.83 1.000 17.14 0.01 28.4 28.4
12900.06 9.78 9.83 1.000 17.14 0.02 28.5 28.4
12905.12 9.78 9.83 1.000 17.14 0.01 28.4 28.5
12910.04 9.78 9.83 1.000 17.14 0.02 28.4 28.4
12915.10 9.78 9.83 1.000 17.14 0.02 28.4 28.5
12920.01 9.78 9.83 1.000 17.14 0.01 28.4 28.5
12925.06 9.78 9.83 1.000 17.14 0.01 28.4 28.6
12930.12 9.78 9.54 1.000 17.14 0.01 28.5 28.5
12935.04 9.48 9.54 1.000 17.14 0.02 28.5 28.6
12940.11 9.48 9.31 1.000 17.14 0.02 28.4 28.6
12945.04 9.24 9.31 1.000 17.15 0.02 28.4 28.5
12950.10 9.24 9.31 1.000 17.14 0.02 28.4 28.6
12955.02 9.24 9.31 1.000 17.14 0.03 28.5 28.5
12960.08 9.24 9.31 1.000 17.14 0.03 28.4 28.5
12965.15 9.24 9.31 1.000 17.14 0.03 28.4 28.5
12970.06 9.24 9.31 1.000 17.15 0.03 28.5 28.5
12975.10 9.24 9.31 1.000 17.14 0.03 28.4 28.5
12980.02 9.24 9.31 1.000 17.14 0.03 28.5 28.6
12985.07 9.24 9.31 1.000 17.14 0.02 28.4 28.6
12990.13 9.24 9.00 1.000 17.14 0.02 28.4 28.4
12995.06 8.96 9.00 1.000 17.14 0.02 28.5 28.5
13000.12 8.96 8.79 1.000 17.14 0.01 28.4 28.5
13005.04 8.74 8.79 1.000 17.14 0.01 28.4 28.4
13010.11 8.74 8.79 1.000 17.14 0.01 28.5 28.5
13015.02 8.74 8.79 1.000 17.14 0.02 28.4 28.4
13020.07 8.74 8.79 1.000 17.14 0.01 28.4 28.6
13025.13 8.74 8.79 1.000 17.14 0.01 28.5 28.3
13030.04 8.74 8.79 1.000 17.14 0.01 28.4 28.7
13035.10 8.74 8.79 1.000 17.14 0.02 28.4 28.5
13040.01 8.74 8.79 1.000 17.14 0.02 28.5 28.6
13045.06 8.74 8.79 1.000 17.14 0.01 28.3 28.7
13050.13 8.74 8.79 1.000 17.14 0.01 28.4 28.7
13055.04 8.74 8.47 1.000 17.14 0.01 28.4 28.7
13060.12 8.41 8.47 1.000 17.14 0.01 28.4 28.4
13065.04 8.41 8.23 1.000 17.14 0.01 28.5 28.5
13070.11 8.41 8.23 1.000 17.14 0.01 28.4 28.4
13075.01 8.16 8.23 1.000 17.14 0.01 28.4 28.6
13080.09 8.16 8.23 1.000 17.14 0.01 28.4 28.3
13085.00 8.16 8.23 1.000 17.14 0.01 28.5 28.4
13090.14 8.16 8.23 1.000 17.14 0.01 28.5 28.4
13095.05 8.16 8.23 1.000 17.14 0.01 28.4 28.6
13100.11 8.16 8.23 1.000 17.14 0.01 28.5 28.6
13105.03 8.16 8.23 1.000 17.14 0.01 28.5 28.5
13110.10 8.16 8.23 1.000 17.14 0.01 28.5 28.6
13115.00 8.16 8.23 1.000 17.14 0.01 28.4 28.5
13120.05 8.16 7.92 1.000 17.14 0.01 28.4 28.5
13125.13 8.16 7.92 1.000 17.14 0.02 28.4 28.4
13130.04 7.85 7.92 1.000 17.14 0.01 28.4 28.5
13135.11 7.85 7.70 1.000 17.14 0.01 28.4 28.6
13140.03 7.62 7.70 1.000 17.14 0.01 28.4 28.6
13145.10 7.62 7.70 1.000 17.14 0.01 28.4 28.5
13150.01 7.62 7.70 1.000 17.14 0.02 28.4 28.6
13155.06 7.62 7.70 1.000 17.14 0.02 28.5 28.5
13160.13 7.62 7.70 1.000 17.14 0.01 28.4 28.5
13165.05 7.62 7.70 1.000 17.14 0.01 28.4 28.5
13170.11 7.62 7.70 1.000 17.14 0.01 28.4 28.4
13175.02 7.62 7.70 1.000 17.14 0.01 28.5 28.6
13180.08 7.62 7.70 1.000 17.14 0.01 28.5 28.5
13185.13 7.62 7.70 1.000 17.14 0.02 28.5 28.4
13190.04 7.62 7.70 1.000 17.15 0.03 28.4 28.5
13195.11 7.62 7.38 1.000 17.14 0.03 28.3 28.6
13200.04 7.62 7.38 1.000 17.14 0.03 28.4 28.5
13205.10 7.30 7.38 1.000 17.14 0.02 28.3 28.6
13210.03 7.30 7.12 1.000 17.14 0.02 28.4 28.5
13215.15 7.30 7.12 1.000 17.14 0.02 28.4 28.5
13220.06 7.03 7.12 1.000 17.14 0.03 28.4 28.5
13225.13 7.03 7.12 1.000 17.14 0.03 28.4 28.5
13230.05 7.03 7.12 1.000 17.14 0.02 28.4 28.6
13235.11 7.03 7.12 1.000 17.14 0.02 28.4 28.6
13240.04 7.03 7.12 1.000 17.14 0.01 28.4 28.5
13245.10 7.03 7.12 1.000 17.14 0.01 28.4 28.6
13250.00 7.03 7.12 1.000 17.14 0.01 28.5 28.6
13255.06 7.03 7.12 1.000 17.14 0.01 28.4 28.5
13260.12 7.03 7.12 1.000 17.14 0.01 28.5 28.4
13265.04 7.03 7.12 1.000 17.14 0.01 28.4 28.5
13270.09 7.03 7.12 1.000 17.14 0.01 28.5 28.5
13275.01 7.03 6.80 1.000 17.14 0.01 28.5 28.6
13280.08 7.03 6.80 1.000 17.14 0.01 28.5 28.5
13285.13 6.72 6.80 1.000 17.14 0.01 28.4 28.6
13290.07 6.72 6.55 1.000 17.14 0.01 28.4 28.5
13295.00 6.72 6.55 1.000 17.14 0.01 28.4 28.4
13300.06 6.48 6.55 1.000 17.14 0.01 28.3 28.4
13305.12 6.48 6.55 1.000 17.14 0.01 28.4 28.7
13310.04 6.48 6.55 1.000 17.14 0.01 28.5 28.5
13315.09 6.48 6.55 1.000 17.14 0.01 28.4 28.5
13320.02 6.48 6.55 1.000 17.14 0.01 28.4 28.6
13325.08 6.48 6.55 1.000 17.14 0.01 28.4 28.4
13330.13 6.48 6.55 1.000 17.14 0.01 28.5 28.4
13335.05 6.48 6.55 1.000 17.14 0.01 28.4 28.5
13340.15 6.48 6.55 1.000 17.14 0.01 28.5 28.4
13345.06 6.48 6.55 1.000 17.14 0.01 28.5 28.5
13350.13 6.48 6.55 1.000 17.14 0.01 28.4 28.6
13355.04 6.48 6.55 1.000 17.14 0.01 28.4 28.4
13360.10 6.48 6.55 1.000 17.14 0.01 28.4 28.5
13365.02 6.48 6.18 1.000 17.14 0.01 28.4 28.6
13370.09 6.48 6.18 1.000 17.14 0.01 28.5 28.5
13375.01 6.48 6.18 1.000 17.14 0.01 28.5 28.5
13380.06 6.10 6.18 1.000 17.14 0.01 28.5 28.5
13385.14 6.10 5.89 1.000 17.14 0.01 28.5 28.6
13390.06 6.10 5.89 1.000 17.14 0.01 28.5 28.5
13395.11 5.80 5.89 1.000 17.14 0.01 28.5 28.7
13400.03 5.80 5.89 1.000 17.14 0.01 28.5 28.4
13405.09 5.80 5.89 1.000 17.14 0.01 28.5 28.6
13410.00 5.80 5.89 1.000 17.14 0.01 28.4 28.6
13415.05 5.80 5.89 1.000 17.14 0.02 28.5 28.4
13420.10 5.80 5.89 1.000 17.14 0.01 28.4 28.7
13425.01 5.80 5.89 1.000 17.14 0.01 28.5 28.7
13430.07 5.80 5.89 1.000 17.14 0.02 28.5 28.5
13435.13 5.80 5.89 1.000 17.14 0.03 28.5 28.6
13440.05 5.80 5.89 1.000 17.14 0.02 28.5 28.6
13445.11 5.80 5.89 1.000 17.14 0.02 28.5 28.6
13450.04 5.80 5.89 1.000 17.14 0.02 28.5 28.6
13455.10 5.80 5.89 1.000 17.14 0.02 28.5 28.6
13460.02 5.80 5.89 1.000 17.14 0.03 28.4 28.6
13465.14 5.80 5.89 1.000 17.14 0.03 28.5 28.6
13470.07 5.80 5.51 1.000 17.14 0.03 28.4 28.6
13475.01 5.80 5.51 1.000 17.14 0.02 28.4 28.6
13480.06 5.80 5.51 1.000 17.14 0.02 28.4 28.5
13485.12 5.45 5.51 1.000 17.14 0.01 28.5 28.6
13490.03 5.45 5.51 1.000 17.14 0.02 28.5 28.5
13495.10 5.45 5.24 1.000 17.14 0.01 28.4 28.7
13500.02 5.45 5.24 1.000 17.14 0.01 28.5 28.7
13505.07 5.18 5.24 1.000 17.14 0.02 28.5 28.7
13510.01 5.18 5.24 1.000 17.14 0.01 28.5 28.6
13515.06 5.18 5.24 1.000 17.14 0.01 28.4 28.5
13520.12 5.18 5.24 1.000 17.14 0.01 28.5 28.6
13525.03 5.18 5.24 1.000 17.14 0.02 28.4 28.7
13530.09 5.18 5.24 1.000 17.14 0.01 28.4 28.8
13535.00 5.18 5.24 1.000 17.14 0.01 28.4 28.6
13540.06 5.18 5.24 1.000 17.14 0.01 28.5 28.7
13545.12 5.18 5.24 1.000 17.14 0.02 28.5 28.7
13550.04 5.18 5.24 1.000 17.14 0.01 28.5 28.6
13555.10 5.18 5.24 1.000 17.14 0.01 28.5 28.6
13560.01 5.18 5.24 1.000 17.14 0.01 28.4 28.7
13565.06 5.18 5.24 1.000 17.14 0.01 28.5 28.8
13570.13 5.18 5.24 1.000 17.14 0.01 28.5 28.7
13575.04 5.18 5.24 1.000 17.14 0.01 28.5 28.6
13580.10 5.18 5.24 1.000 17.14 0.01 28.5 28.6
13585.01 5.18 5.24 1.000 17.14 0.01 28.5 28.6
13590.14 5.18 5.24 1.000 17.14 0.01 28.5 28.6
13595.05 5.18 5.24 1.000 17.14 0.01 28.5 28.9
13600.09 5.18 4.81 1.000 17.14 0.01 28.4 28.6
13605.04 5.18 4.81 1.000 17.14 0.01 28.4 28.6
13610.10 5.18 4.81 1.000 17.14 0.02 28.5 28.7
13615.01 4.72 4.81 1.000 17.14 0.01 28.5 28.6
13620.08 4.72 4.81 1.000 17.14 0.02 28.4 28.8
13625.00 4.72 4.44 1.000 17.14 0.01 28.4 28.6
13630.07 4.72 4.44 1.000 17.14 0.02 28.4 28.8
13635.13 4.72 4.44 1.000 17.14 0.01 28.5 28.7
13640.04 4.35 4.44 1.000 17.14 0.01 28.4 28.5
13645.11 4.35 4.44 1.000 17.14 0.01 28.5 28.7
13650.01 4.35 4.44 1.000 17.14 0.01 28.6 28.8
13655.07 4.35 4.44 1.000 17.14 0.01 28.6 28.8
13660.13 4.35 4.44 1.000 17.14 0.01 28.4 28.8
13665.04 4.35 4.44 1.000 17.14 0.01 28.4 28.9
13670.10 4.35 4.44 1.000 17.14 0.01 28.5 28.7
13675.02 4.35 4.44 1.000 17.14 0.01 28.5 28.7
13680.08 4.35 4.44 1.000 17.14 0.01 28.4 28.7
13685.00 4.35 4.44 1.000 17.14 0.02 28.5 28.6
13690.06 4.35 4.44 1.000 17.14 0.02 28.4 28.7
13695.12 4.35 4.44 1.000 17.14 0.02 28.4 29.0
13700.04 4.35 4.44 1.000 17.14 0.02 28.5 28.8
13705.10 4.35 4.44 1.000 17.14 0.02 28.5 28.6
13710.02 4.35 4.44 1.000 17.14 0.02 28.5 28.7
13715.14 4.35 4.44 1.000 17.14 0.02 28.5 28.8
13720.05 4.35 4.44 1.000 17.14 0.02 28.5 28.7
13725.09 4.35 4.44 1.000 17.14 0.02 28.5 28.7
13730.00 4.35 4.44 1.000 17.14 0.02 28.5 28.8
13735.06 4.35 4.44 1.000 17.14 0.02 28.6 28.7
13740.12 4.35 4.44 1.000 17.14 0.02 28.4 28.7
13745.03 4.35 4.44 1.000 17.14 0.01 28.6 28.8
13750.09 4.35 4.44 1.000 17.14 0.02 28.6 28.9
13755.01 4.35 4.44 1.000 17.14 0.01 28.5 28.8
13760.06 4.35 3.98 1.000 17.14 0.01 28.4 28.9
13765.01 4.35 3.98 1.000 17.14 0.01 28.5 28.7
13770.06 4.35 3.98 1.000 17.14 0.01 28.4 28.7
13775.12 4.35 3.98 1.000 17.14 0.01 28.5 28.8
13780.04 3.90 3.98 1.000 17.14 0.02 28.4 28.7
13785.11 3.90 3.98 1.000 17.14 0.01 28.5 28.7
13790.02 3.90 3.98 1.000 17.14 0.01 28.5 28.8
13795.07 3.90 3.63 1.000 17.14 0.02 28.5 28.8
13800.14 3.90 3.63 1.000 17.14 0.01 28.5 28.7
13805.05 3.90 3.63 1.000 17.14 0.01 28.5 28.7
13810.10 3.90 3.63 1.000 17.14 0.02 28.5 28.9
13815.01 3.55 3.63 1.000 17.14 0.01 28.5 28.8
13820.08 3.55 3.63 1.000 17.14 0.01 28.6 28.6
13825.13 3.55 3.63 1.000 17.14 0.02 28.6 28.9
13830.04 3.55 3.63 1.000 17.14 0.01 28.5 28.6
13835.10 3.55 3.63 1.000 17.14 0.01 28.5 28.7
13840.17 3.55 3.63 1.000 17.14 0.01 28.5 28.7
13845.09 3.55 3.63 1.000 17.14 0.01 28.6 28.8
13850.00 3.55 3.63 1.000 17.14 0.02 28.5 28.7
13855.05 3.55 3.63 1.000 17.14 0.01 28.5 28.7
13860.11 3.55 3.63 1.000 17.14 0.01 28.5 28.7
13865.03 3.55 3.63 1.000 17.14 0.01 28.5 28.8
13870.10 3.55 3.63 1.000 17.14 0.01 28.5 28.8
13875.01 3.55 3.63 1.000 17.14 0.01 28.6 28.6
13880.07 3.55 3.63 1.000 17.14 0.01 28.5 28.9
13885.13 3.55 3.63 1.000 17.14 0.01 28.5 28.9
13890.04 3.55 3.63 1.000 17.14 0.02 28.5 28.9
13895.10 3.55 3.63 1.000 17.14 0.02 28.5 28.7
13900.01 3.55 3.63 1.000 17.14 0.01 28.4 28.8
13905.07 3.55 3.63 1.000 17.14 0.01 28.5 28.9
13910.13 3.55 3.63 1.000 17.14 0.02 28.5 28.8
13915.05 3.55 3.63 1.000 17.14 0.02 28.5 28.8
13920.11 3.55 3.63 1.000 17.14 0.01 28.6 28.8
13925.02 3.55 3.63 1.000 17.14 0.01 28.6 28.8
13930.08 3.55 3.63 1.000 17.14 0.01 28.5 28.8
13935.13 3.55 3.63 1.000 17.14 0.02 28.6 28.8
13940.05 3.55 3.63 1.000 17.14 0.02 28.6 28.8
13945.11 3.55 3.63 1.000 17.14 0.02 28.5 28.7
13950.04 3.55 3.63 1.000 17.14 0.02 28.5 28.8
13955.10 3.55 3.63 1.000 17.14 0.03 28.5 28.8
13960.02 3.55 3.63 1.000 17.14 0.03 28.6 28.9
13965.14 3.55 3.63 1.000 17.14 0.03 28.5 28.8
13970.05 3.55 3.63 1.000 17.14 0.02 28.6 28.8
13975.09 3.55 3.63 1.000 17.14 0.03 28.5 28.8
13980.00 3.55 3.63 1.000 17.14 0.03 28.6 28.8
13985.06 3.55 3.63 1.000 17.14 0.01 28.4 28.8
13990.13 3.55 3.63 1.000 17.14 0.01 28.5 28.8
13995.05 3.55 3.63 1.000 17.14 0.01 28.4 28.8
14000.11 3.55 3.63 1.000 17.14 0.01 28.5 28.8
14005.04 3.55 3.63 1.000 17.14 0.02 28.5 28.8
14010.09 3.55 3.63 1.000 17.14 0.01 28.7 28.7
14015.01 3.55 3.63 1.000 17.14 0.01 28.5 28.8
14020.07 3.55 3.63 1.000 17.14 0.01 28.5 28.8
14025.13 3.55 3.63 1.000 17.14 0.01 28.6 28.8
14030.05 3.55 3.63 1.000 17.14 0.01 28.5 28.8
14035.11 3.55 3.63 1.000 17.14 0.01 28.5 28.7
14040.02 3.55 3.63 1.000 17.14 0.01 28.5 28.8
14045.08 3.55 3.63 1.000 17.14 0.01 28.5 28.8
14050.13 3.55 3.63 1.000 17.14 0.02 28.5 28.9
14055.05 3.55 3.63 1.000 17.14 0.01 28.6 28.9
14060.11 3.55 3.63 1.000 17.14 0.01 28.5 28.8
14065.04 3.55 3.63 1.000 17.14 0.01 28.5 28.7
14070.10 3.55 3.63 1.000 17.14 0.01 28.5 28.8
14075.00 3.55 3.63 1.000 17.14 0.02 28.6 28.9
14080.06 3.55 3.63 1.000 17.14 0.01 28.6 28.8
14085.11 3.55 3.63 1.000 17.14 0.01 28.5 28.7
14090.18 3.55 3.63 1.000 17.14 0.01 28.6 28.9
14095.09 3.55 3.63 1.000 17.14 0.01 28.5 28.8
14100.14 3.55 3.63 1.000 17.14 0.01 28.5 28.8
14105.05 3.55 3.63 1.000 17.14 0.01 28.4 28.9
14110.10 3.55 3.63 1.000 17.14 0.01 28.5 28.9
14115.01 3.55 3.63 1.000 17.14 0.01 28.6 28.9
14120.07 3.55 3.63 1.000 17.14 0.01 28.5 28.9
14125.13 3.55 3.63 1.000 17.14 0.01 28.5 28.9
14130.05 3.55 3.63 1.000 17.14 0.01 28.5 28.9
14135.11 3.55 3.63 1.000 17.14 0.01 28.6 28.9
14140.03 3.55 3.63 1.000 17.14 0.01 28.5 28.9
14145.09 3.55 3.63 1.000 17.14 0.01 28.6 28.8
14150.01 3.55 3.63 1.000 17.14 0.01 28.6 28.9
14155.07 3.55 3.63 1.000 17.14 0.01 28.6 28.7
14160.13 3.55 3.63 1.000 17.14 0.01 28.6 28.7
14165.05 3.55 3.63 1.000 17.14 0.01 28.6 28.7
14170.11 3.55 3.63 1.000 17.14 0.01 28.6 28.9
14175.03 3.55 3.63 1.000 17.14 0.01 28.5 29.0
14180.09 3.55 3.63 1.000 17.14 0.01 28.6 28.8
14185.01 3.55 3.63 1.000 17.14 0.02 28.6 28.8
14190.07 3.55 3.63 1.000 17.14 0.02 28.6 28.9
14195.13 3.55 3.63 1.000 17.14 0.02 28.6 28.8
14200.05 3.55 3.63 1.000 17.14 0.03 28.5 28.9
14205.11 3.55 3.63 1.000 17.14 0.03 28.6 28.9
14210.03 3.55 3.63 1.000 17.14 0.02 28.5 28.8
14215.14 3.55 3.63 1.000 17.14 0.02 28.6 28.9
14220.07 3.55 3.63 1.000 17.14 0.02 28.6 28.8
14225.13 3.55 3.63 1.000 17.14 0.02 28.5 28.8
14230.05 3.55 3.63 1.000 17.14 0.02 28.5 28.8
14235.11 3.55 3.63 1.000 17.14 0.01 28.6 28.8
14240.02 3.55 3.63 1.000 17.14 0.01 28.5 28.9
14245.07 3.55 3.63 1.000 17.14 0.01 28.5 28.9
14250.13 3.55 3.63 1.000 17.14 0.01 28.5 28.9
14255.04 3.55 3.63 1.000 17.14 0.01 28.6 28.9
14260.11 3.55 3.63 1.000 17.14 0.01 28.5 28.9
14265.02 3.55 3.63 1.000 17.14 0.01 28.6 28.9
14270.08 3.55 3.63 1.000 17.14 0.01 28.6 28.8
14275.13 3.55 3.63 1.000 17.14 0.01 28.6 29.0
14280.05 3.55 3.63 1.000 17.14 0.02 28.6 29.0
14285.11 3.55 3.63 1.000 17.14 0.01 28.6 28.8
14290.03 3.55 3.63 1.000 17.14 0.01 28.6 29.0
14295.09 3.55 3.63 1.000 17.14 0.01 28.6 28.9
14300.01 3.55 3.63 1.000 17.14 0.01 28.5 29.0
14305.07 3.55 3.63 1.000 17.14 0.01 28.6 28.9
14310.13 3.55 3.63 1.000 17.14 0.01 28.6 28.9
14315.05 3.55 3.63 1.000 17.14 0.01 28.6 28.8
14320.10 3.55 3.63 1.000 17.14 0.01 28.7 29.0
14325.01 3.55 3.63 1.000 17.14 0.01 28.5 29.0
14330.07 3.55 3.63 1.000 17.14 0.01 28.5 28.8
14335.13 3.55 3.63 1.000 17.14 0.01 28.5 28.8
14340.14 3.55 3.63 1.000 17.14 0.01 28.6 29.0
14345.05 3.55 3.63 1.000 17.14 0.01 28.7 28.9
14350.11 3.55 3.63 1.000 17.14 0.01 28.7 29.1
14355.02 3.55 3.63 1.000 17.14 0.01 28.7 29.0
14360.08 3.55 3.63 1.000 17.14 0.01 28.5 28.9
14365.13 3.55 3.63 1.000 17.14 0.01 28.6 28.9
14370.04 3.55 3.63 1.000 17.14 0.01 28.6 29.0
14375.11 3.55 3.63 1.000 17.14 0.01 28.6 28.9
14380.02 3.55 3.63 1.000 17.14 0.01 28.6 28.9
14385.07 3.55 3.63 1.000 17.14 0.01 28.6 29.0
14390.13 3.55 3.63 1.000 17.14 0.01 28.6 28.9
14395.04 3.55 3.63 1.000 17.14 0.01 28.7 29.0
14400.10 3.55 3.63 1.000 17.14 0.01 28.7 28.9
14405.02 3.55 3.63 1.000 17.14 0.01 28.7 28.9
14410.07 3.55 3.63 1.000 17.14 0.01 28.7 28.9
14415.13 3.55 3.63 1.000 17.14 0.01 28.6 29.1
14420.05 3.55 3.63 1.000 17.14 0.01 28.7 28.9
14425.11 3.55 3.63 1.000 17.14 0.01 28.7 28.8
14430.04 3.55 3.63 1.000 17.14 0.01 28.6 28.9
14435.09 3.55 3.63 1.000 17.14 0.02 28.6 29.0
14440.00 3.55 3.63 1.000 17.14 0.02 28.6 29.0
14445.07 3.55 3.63 1.000 17.14 0.02 28.6 29.0
14450.00 3.55 3.63 1.000 17.14 0.03 28.6 28.9
14455.06 3.55 3.63 1.000 17.14 0.02 28.7 29.0
14460.11 3.55 3.63 1.000 17.14 0.02 28.6 29.1
14465.13 3.55 3.63 1.000 17.14 0.02 28.6 28.8
14470.05 3.55 3.63 1.000 17.14 0.02 28.6 28.9
14475.11 3.55 3.63 1.000 17.14 0.03 28.6 29.0
14480.04 3.55 3.63 1.000 17.14 0.02 28.6 28.8
14485.10 3.55 3.63 1.000 17.14 0.02 28.8 29.0
14490.01 3.55 3.63 1.000 17.14 0.01 28.6 29.0
14495.07 3.55 3.63 1.000 17.14 0.01 28.6 29.0
14500.00 3.55 3.63 1.000 17.14 0.01 28.7 29.0
14505.05 3.55 3.63 1.000 17.14 0.01 28.6 29.1
14510.10 3.55 3.63 1.000 17.14 0.01 28.6 29.0
14515.02 3.55 3.63 1.000 17.14 0.01 28.7 28.9
14520.08 3.55 3.63 1.000 17.14 0.01 28.6 29.1
14525.13 3.55 3.63 1.000 17.14 0.01 28.6 29.0
14530.05 3.55 3.63 1.000 17.14 0.01 28.7 29.0
14535.11 3.55 3.63 1.000 17.14 0.01 28.7 28.9
14540.02 3.55 3.63 1.000 17.14 0.01 28.8 28.9
14545.08 3.55 3.63 1.000 17.14 0.01 28.7 28.9
14550.00 3.55 3.63 1.000 17.14 0.01 28.7 28.9
14555.06 3.55 3.63 1.000 17.14 0.01 28.7 28.9
14560.12 3.55 3.63 1.000 17.14 0.01 28.7 29.1
14565.04 3.55 3.63 1.000 17.14 0.01 28.7 28.9
14570.09 3.55 3.63 1.000 17.14 0.01 28.7 29.0
14575.01 3.55 3.63 1.000 17.14 0.02 28.7 28.9
14580.07 3.55 3.63 1.000 17.14 0.02 28.7 28.8
14585.13 3.55 3.63 1.000 17.14 0.02 28.7 29.0
14590.14 3.55 3.63 1.000 17.14 0.01 28.7 28.9
14595.05 3.55 3.63 1.000 17.14 0.02 28.6 28.9
14600.11 3.55 3.63 1.000 17.14 0.02 28.7 28.9
14605.04 3.55 3.63 1.000 17.14 0.01 28.7 29.0
14610.09 3.55 3.63 1.000 17.14 0.01 28.7 29.1
14615.01 3.55 3.63 1.000 17.14 0.02 28.8 29.0
14620.07 3.55 3.63 1.000 17.14 0.01 28.6 29.0
14625.13 3.55 3.63 1.000 17.14 0.01 28.7 28.9
14630.05 3.55 3.63 1.000 17.14 0.01 28.7 29.0
14635.11 3.55 3.63 1.000 17.14 0.02 28.6 29.0
14640.04 3.55 3.63 1.000 17.14 0.01 28.7 29.0
14645.10 3.55 3.63 1.000 17.14 0.01 28.7 29.0
14650.01 3.55 3.63 1.000 17.14 0.01 28.7 29.0
14655.06 3.55 3.63 1.000 17.14 0.01 28.7 29.0
14660.12 3.55 3.63 1.000 17.14 0.01 28.7 28.9
14665.04 3.55 3.63 1.000 17.14 0.01 28.6 29.0
14670.10 3.55 3.63 1.000 17.14 0.01 28.7 28.9
14675.01 3.55 3.63 1.000 17.14 0.01 28.6 28.9
14680.07 3.55 3.63 1.000 17.14 0.02 28.6 29.1
14685.13 3.55 3.63 1.000 17.14 0.02 28.6 29.1
14690.05 3.55 3.63 1.000 17.14 0.02 28.6 29.0
14695.12 3.55 3.63 1.000 17.14 0.02 28.6 29.0
14700.04 3.55 3.63 1.000 17.14 0.02 28.6 28.9
14705.10 3.55 3.63 1.000 17.14 0.02 28.7 29.0
14710.02 3.55 3.63 1.000 17.14 0.02 28.6 29.0
14715.14 3.55 3.63 1.000 17.15 0.02 28.7 29.0
14720.06 3.55 3.63 1.000 17.14 0.02 28.6 29.0
14725.12 3.55 3.63 1.000 17.14 0.02 28.6 29.1
14730.04 3.55 3.63 1.000 17.14 0.03 28.6 28.9
14735.10 3.55 3.63 1.000 17.14 0.01 28.7 28.9
14740.01 3.55 3.63 1.000 17.14 0.01 28.6 29.2
14745.07 3.55 3.63 1.000 17.14 0.02 28.7 29.1
14750.13 3.55 3.63 1.000 17.14 0.01 28.7 29.1
14755.04 3.55 3.63 1.000 17.14 0.01 28.8 29.2
14760.10 3.55 3.63 1.000 17.14 0.01 28.6 29.0
14765.02 3.55 3.63 1.000 17.14 0.01 28.7 29.1
14770.07 3.55 3.63 1.000 17.14 0.01 28.7 29.0
14775.13 3.55 3.63 1.000 17.14 0.01 28.7 29.0
14780.04 3.55 3.63 1.000 17.14 0.01 28.7 29.1
14785.09 3.55 3.63 1.000 17.14 0.01 28.7 29.1
14790.00 3.55 3.63 1.000 17.14 0.01 28.8 29.1
14795.06 3.55 3.63 1.000 17.14 0.01 28.7 29.0
14800.11 3.55 3.63 1.000 17.14 0.01 28.7 29.1
14805.02 3.55 3.63 1.000 17.14 0.01 28.7 29.1
14810.08 3.55 3.63 1.000 17.14 0.01 28.7 29.1
14815.13 3.55 3.63 1.000 17.14 0.01 28.7 29.1
14820.05 3.55 3.63 1.000 17.14 0.01 28.7 29.2
14825.11 3.55 3.63 1.000 17.14 0.01 28.6 29.0
14830.03 3.55 3.63 1.000 17.14 0.01 28.7 29.1
14835.09 3.55 3.63 1.000 17.14 0.02 28.8 29.2
14840.16 3.55 3.63 1.000 17.14 0.02 28.7 29.2
14845.09 3.55 3.63 1.000 17.14 0.02 28.7 29.2
14850.00 3.55 3.63 1.000 17.14 0.01 28.7 29.2
14855.05 3.55 3.63 1.000 17.14 0.02 28.8 29.1
14860.11 3.55 3.63 1.000 17.14 0.01 28.7 29.1
14865.04 3.55 3.63 1.000 17.14 0.02 28.7 29.1
14870.10 3.55 3.63 1.000 17.14 0.02 28.8 29.3
14875.02 3.55 3.63 1.000 17.14 0.02 28.8 29.2
14880.07 3.55 3.63 1.000 17.14 0.02 28.7 29.2
14885.13 3.55 3.63 1.000 17.14 0.01 28.7 29.0
14890.05 3.55 3.63 1.000 17.14 0.01 28.7 29.1
14895.11 3.55 3.63 1.000 17.14 0.02 28.7 29.2
14900.04 3.55 3.63 1.000 17.14 0.01 28.7 29.2
14905.10 3.55 3.63 1.000 17.14 0.02 28.7 29.2
14910.02 3.55 3.63 1.000 17.14 0.02 28.8 29.1
14915.07 3.55 3.63 1.000 17.14 0.01 28.8 29.1
14920.14 3.55 3.63 1.000 17.14 0.02 28.6 29.1
14925.05 3.55 3.63 1.000 17.14 0.02 28.7 29.1
14930.12 3.55 3.63 1.000 17.14 0.02 28.8 29.2
14935.04 3.55 3.63 1.000 17.14 0.02 28.8 29.2
14940.09 3.55 3.63 1.000 17.14 0.03 28.7 29.2
14945.00 3.55 3.63 1.000 17.14 0.02 28.7 29.1
14950.06 3.55 3.63 1.000 17.14 0.03 28.8 29.1
14955.12 3.55 3.63 1.000 17.15 0.03 28.7 29.2
14960.04 3.55 3.63 1.000 17.14 0.03 28.8 29.2
14965.15 3.55 3.63 1.000 17.14 0.02 28.8 29.3
14970.06 3.55 3.63 1.000 17.14 0.03 28.8 29.2
14975.10 3.55 3.63 1.000 17.14 0.03 28.7 29.1
14980.02 3.55 3.63 1.000 17.14 0.03 28.8 29.1
14985.08 3.55 3.63 1.000 17.14 0.02 28.7 29.2
14990.13 3.55 3.63 1.000 17.14 0.02 28.7 29.2
14995.05 3.55 3.63 1.000 17.14 0.02 28.7 29.2
15000.11 3.55 3.63 1.000 17.14 0.02 28.7 29.1
15005.04 3.55 3.63 1.000 17.14 0.02 28.8 29.2
15010.09 3.55 3.63 1.000 17.14 0.02 28.8 29.1
15015.00 3.55 3.63 1.000 17.14 0.01 28.7 29.1
15020.06 3.55 3.63 1.000 17.14 0.01 28.7 29.2
15025.14 3.55 3.63 1.000 17.14 0.01 28.7 29.1
15030.05 3.55 3.63 1.000 17.14 0.02 28.8 29.1
15035.11 3.55 3.63 1.000 17.14 0.02 28.8 29.1
15040.04 3.55 3.63 1.000 17.14 0.02 28.8 29.1
15045.09 3.55 3.63 1.000 17.14 0.01 28.8 29.2
15050.01 3.55 3.63 1.000 17.14 0.01 28.7 29.2
15055.06 3.55 3.63 1.000 17.14 0.01 28.7 29.2
15060.13 3.55 3.63 1.000 17.14 0.01 28.7 29.2
15065.05 3.55 3.63 1.000 17.14 0.01 28.7 29.2
15070.10 3.55 3.63 1.000 17.14 0.01 28.8 29.2
15075.03 3.55 3.63 1.000 17.14 0.02 28.8 29.2
15080.10 3.55 3.63 1.000 17.14 0.02 28.8 29.2
15085.02 3.55 3.63 1.000 17.14 0.01 28.8 29.2
15090.14 3.55 3.63 1.000 17.14 0.02 28.8 29.1
15095.05 3.55 3.63 1.000 17.14 0.01 28.8 29.3
15100.11 3.55 3.63 1.000 17.14 0.02 28.8 29.2
15105.02 3.55 3.63 1.000 17.14 0.02 28.7 29.2
15110.08 3.55 3.63 1.000 17.14 0.01 28.8 29.3
15115.13 3.55 3.63 1.000 17.14 0.01 28.8 29.3
15120.04 3.55 3.63 1.000 17.14 0.01 28.7 29.3
15125.11 3.55 3.63 1.000 17.14 0.01 28.8 29.3
15130.04 3.55 3.63 1.000 17.14 0.01 28.9 29.2
15135.09 3.55 3.63 1.000 17.14 0.01 28.7 29.2
15140.00 3.55 3.63 1.000 17.14 0.01 28.7 29.0
15145.06 3.55 3.63 1.000 17.14 0.01 28.8 29.1
15150.12 3.55 3.63 1.000 17.14 0.01 28.8 29.1
15155.04 3.55 3.63 1.000 17.14 0.01 28.8 29.2
15160.10 3.55 3.63 1.000 17.14 0.01 28.9 29.1
15165.01 3.55 3.63 1.000 17.14 0.01 28.7 29.2
15170.06 3.55 3.63 1.000 17.14 0.01 28.9 29.1
15175.13 3.55 3.63 1.000 17.14 0.01 28.8 29.2
15180.05 3.55 3.63 1.000 17.14 0.01 28.7 29.2
15185.11 3.55 3.63 1.000 17.14 0.02 28.8 29.3
15190.02 3.55 3.63 1.000 17.14 0.03 28.7 29.1
15195.08 3.55 3.63 1.000 17.14 0.02 28.9 29.2
15200.13 3.55 3.63 1.000 17.14 0.03 28.8 29.2
15205.05 3.55 3.63 1.000 17.14 0.02 28.9 29.2
15210.11 3.55 3.63 1.000 17.14 0.03 28.8 29.2
15215.13 3.55 3.63 1.000 17.14 0.02 28.9 29.2
15220.05 3.55 3.63 1.000 17.14 0.02 28.8 29.1
15225.11 3.55 3.63 1.000 17.14 0.03 28.8 29.2
15230.04 3.55 3.63 1.000 17.14 0.02 28.7 29.0
15235.10 3.55 3.63 1.000 17.14 0.02 28.7 29.1
15240.02 3.55 3.63 1.000 17.14 0.01 28.8 29.3
15245.07 3.55 3.63 1.000 17.14 0.01 28.8 29.2
15250.13 3.55 3.63 1.000 17.14 0.02 28.8 29.1
15255.05 3.55 3.63 1.000 17.14 0.02 28.8 29.2
15260.11 3.55 3.63 1.000 17.14 0.02 28.8 29.2
15265.02 3.55 3.63 1.000 17.14 0.02 28.9 29.3
15270.07 3.55 3.63 1.000 17.14 0.02 28.8 29.3
15275.13 3.55 3.63 1.000 17.14 0.02 28.8 29.0
15280.05 3.55 3.63 1.000 17.14 0.02 28.9 29.0
15285.10 3.55 3.63 1.000 17.14 0.02 28.9 29.0
15290.02 3.55 3.63 1.000 17.14 0.02 28.9 29.3
15295.08 3.55 3.63 1.000 17.14 0.02 28.9 29.2
15300.13 3.55 3.63 1.000 17.14 0.02 28.8 29.3
15305.05 3.55 3.63 1.000 17.14 0.01 28.8 29.1
15310.11 3.55 3.63 1.000 17.14 0.01 28.9 29.2
15315.02 3.55 3.63 1.000 17.14 0.01 28.8 29.2
15320.07 3.55 3.63 1.000 17.14 0.01 28.9 29.2
15325.13 3.55 3.63 1.000 17.14 0.01 28.9 29.2
15330.05 3.55 3.63 1.000 17.14 0.02 28.8 29.3
15335.10 3.55 3.63 1.000 17.14 0.01 28.9 29.1
15340.17 3.55 3.63 1.000 17.14 0.02 28.8 29.1
15345.08 3.55 3.63 1.000 17.14 0.01 28.9 29.2
15350.00 3.55 3.63 1.000 17.14 0.02 28.8 29.3
15355.06 3.55 3.63 1.000 17.14 0.01 28.9 29.0
15360.12 3.55 3.63 1.000 17.14 0.02 28.8 29.1
15365.03 3.55 3.63 1.000 17.14 0.01 28.8 29.2
15370.10 3.55 3.63 1.000 17.14 0.01 28.9 29.2
15375.01 3.55 3.63 1.000 17.14 0.01 28.9 29.2
15380.07 3.55 3.63 1.000 17.14 0.01 28.9 29.2
15385.00 3.55 3.63 1.000 17.14 0.01 28.8 29.2
15390.06 3.55 3.63 1.000 17.14 0.02 28.9 29.1
15395.11 3.55 3.63 1.000 17.14 0.01 28.8 29.1
15400.03 3.55 3.63 1.000 17.14 0.02 28.9 29.2
15405.10 3.55 3.63 1.000 17.14 0.01 28.9 29.2
15410.02 3.55 3.63 1.000 17.14 0.01 28.7 29.3
15415.07 3.55 3.63 1.000 17.14 0.02 28.9 29.2
15420.14 3.55 3.63 1.000 17.14 0.02 28.8 29.2
15425.05 3.55 3.63 1.000 17.14 0.01 28.9 29.2
15430.11 3.55 3.63 1.000 17.14 0.01 28.8 29.2
15435.02 3.55 3.63 1.000 17.14 0.02 28.9 29.2
15440.07 3.55 3.63 1.000 17.14 0.03 28.9 29.2
15445.13 3.55 3.63 1.000 17.14 0.03 28.8 29.2
15450.04 3.55 3.63 1.000 17.14 0.03 28.9 29.2
15455.10 3.55 3.63 1.000 17.14 0.02 28.9 29.4
15460.01 3.55 3.63 1.000 17.14 0.03 28.9 29.1
15465.14 3.55 3.63 1.000 17.14 0.03 28.8 29.2
15470.06 3.55 3.63 1.000 17.14 0.02 28.9 29.2
15475.11 3.55 3.63 1.000 17.14 0.02 28.9 29.2
15480.02 3.55 3.63 1.000 17.14 0.03 28.9 29.1
15485.07 3.55 3.63 1.000 17.14 0.01 28.9 29.1
15490.13 3.55 3.63 1.000 17.14 0.01 28.9 29.2
15495.04 3.55 3.63 1.000 17.14 0.02 28.9 29.1
15500.09 3.55 3.63 1.000 17.14 0.01 28.9 29.1
15505.00 3.55 3.63 1.000 17.14 0.01 28.8 29.1
15510.05 3.55 3.63 1.000 17.14 0.01 29.0 29.0
15515.10 3.55 3.63 1.000 17.14 0.01 28.8 29.1
15520.02 3.55 3.63 1.000 17.14 0.01 29.0 29.2
15525.07 3.55 3.63 1.000 17.14 0.00 28.9 29.2
15530.12 3.55 3.63 1.000 17.14 0.01 28.9 29.0
15535.04 3.55 3.63 1.000 17.14 0.01 28.8 29.1
15540.08 3.55 3.63 1.000 17.14 0.01 28.9 29.1
15545.14 3.55 3.63 1.000 17.14 0.01 28.9 29.2
15550.05 3.55 3.63 1.000 17.14 0.00 28.8 29.2
15555.10 3.55 3.63 1.000 17.14 0.01 28.9 29.2
15560.01 3.55 3.63 1.000 17.14 0.01 28.9 29.1
15565.06 3.55 3.63 1.000 17.14 0.01 28.9 29.2
15570.11 3.55 3.63 1.000 17.14 0.01 29.0 29.1
15575.02 3.55 3.63 1.000 17.14 0.02 29.0 29.2
15580.07 3.55 3.63 1.000 17.14 0.01 29.0 29.3
15585.12 3.55 3.63 1.000 17.14 0.01 29.0 29.2
15590.13 3.55 3.63 1.000 17.14 0.01 28.9 29.1
15595.04 3.55 3.63 1.000 17.14 0.02 28.8 29.1
15600.07 3.55 3.63 1.000 17.14 0.01 29.0 29.0
15605.13 3.55 3.63 1.000 17.14 0.01 29.0 29.1
15610.04 3.55 3.63 1.000 17.14 0.02 28.8 29.2
15615.09 3.55 3.63 1.000 17.14 0.01 28.9 29.2
15620.01 3.55 3.63 1.000 17.14 0.01 28.9 29.2
15625.06 3.55 3.63 1.000 17.14 0.01 29.0 29.2
