% 1   Time (ms)
% 2,3 (a,b) calculated rotations per second (2 sensors)
% 4   ESC PW (ms) (motor 1)
% 5   Battery voltage (V)
% 6   Battery current (A)
% 7   Motor temp (deg C)
% 8   ESC temp (deg C)
% 
8.65 0.00 0.00 0.000 22.34 -0.01 26.8 29.5 0
18.65 0.00 0.00 0.000 22.34 -0.01 26.7 29.5 1
28.65 0.00 0.00 0.000 22.34 -0.00 26.7 29.5 2
38.65 0.00 0.00 0.000 22.34 -0.01 26.8 29.5 3
48.65 0.00 0.00 0.000 22.34 0.01 26.7 29.4 4
58.65 0.00 0.00 0.000 22.34 -0.00 26.8 29.4 5
68.65 0.00 0.00 0.000 22.34 -0.00 26.8 29.4 6
78.65 0.00 0.00 0.000 22.34 0.01 26.8 29.5 7
88.65 0.00 0.00 0.000 22.34 0.01 26.8 29.4 8
98.65 0.00 0.00 0.000 22.34 0.00 26.7 29.5 9
108.65 0.00 0.00 0.000 22.34 0.00 26.7 29.4 10
118.65 0.00 0.00 0.000 22.34 0.00 26.6 29.5 11
128.88 0.00 0.00 0.000 22.34 0.01 26.7 29.4 12
138.65 0.00 0.00 0.000 22.34 0.00 26.8 29.4 13
148.65 0.00 0.00 0.000 22.34 0.01 26.7 29.5 14
158.65 0.00 0.00 0.000 22.34 0.00 26.8 29.4 15
168.65 0.00 0.00 0.000 22.34 0.00 26.7 29.4 16
178.65 0.00 0.00 0.000 22.34 -0.00 26.7 29.4 17
188.65 0.00 0.00 0.000 22.34 -0.00 26.7 29.5 18
198.65 0.00 0.00 0.000 22.34 -0.00 26.8 29.5 19
208.65 0.00 0.00 0.000 22.34 -0.01 26.7 29.5 20
218.65 0.00 0.00 0.000 22.34 -0.00 26.7 29.5 21
228.65 0.00 0.00 0.000 22.34 -0.00 26.8 29.5 22
238.65 0.00 0.00 0.000 22.34 0.01 26.7 29.4 23
248.65 0.00 0.00 0.000 22.34 0.00 26.7 29.4 24
258.65 0.00 0.00 0.000 22.34 -0.00 26.7 29.5 25
268.65 0.00 0.00 0.000 22.34 -0.00 26.7 29.4 26
278.65 0.00 0.00 0.000 22.34 0.00 26.8 29.5 27
288.65 0.00 0.00 0.000 22.34 0.00 26.8 29.5 28
298.65 0.00 0.00 0.000 22.34 0.00 26.8 29.5 29
308.65 0.00 0.00 0.000 22.34 -0.00 26.7 29.4 30
318.65 0.00 0.00 0.000 22.34 -0.00 26.7 29.4 31
328.65 0.00 0.00 0.000 22.34 -0.00 26.7 29.4 32
338.65 0.00 0.00 0.000 22.34 0.00 26.7 29.4 33
348.65 0.00 0.00 0.000 22.34 0.00 26.7 29.4 34
358.65 0.00 0.00 0.000 22.34 -0.01 26.8 29.5 35
368.65 0.00 0.00 0.000 22.34 -0.00 26.8 29.5 36
378.87 0.00 0.00 0.000 22.34 0.01 26.8 29.5 37
388.65 0.00 0.00 0.000 22.34 0.01 26.8 29.5 38
398.65 0.00 0.00 0.000 22.34 0.01 26.7 29.4 39
408.65 0.00 0.00 0.000 22.34 -0.00 26.7 29.4 40
418.65 0.00 0.00 0.000 22.34 -0.00 26.7 29.5 41
428.65 0.00 0.00 0.000 22.34 0.00 26.7 29.5 42
438.65 0.00 0.00 0.000 22.34 0.00 26.7 29.5 43
448.65 0.00 0.00 0.000 22.34 0.00 26.7 29.4 44
458.65 0.00 0.00 0.000 22.34 0.01 26.7 29.5 45
468.65 0.00 0.00 0.000 22.34 -0.00 26.7 29.4 46
478.65 0.00 0.00 0.000 22.34 -0.00 26.7 29.5 47
488.65 0.00 0.00 0.000 22.34 0.00 26.7 29.5 48
498.65 0.00 0.00 0.000 22.34 -0.00 26.7 29.5 49
508.65 0.00 0.00 0.000 22.34 -0.00 26.7 29.5 50
518.65 0.00 0.00 0.000 22.34 0.00 26.7 29.4 51
528.65 0.00 0.00 0.000 22.34 -0.00 26.7 29.5 52
538.65 0.00 0.00 0.000 22.34 0.00 26.7 29.4 53
548.65 0.00 0.00 0.000 22.34 0.01 26.7 29.4 54
558.65 0.00 0.00 0.000 22.34 -0.00 26.8 29.4 55
568.65 0.00 0.00 0.000 22.34 -0.00 26.7 29.4 56
578.65 0.00 0.00 0.000 22.34 0.00 26.7 29.5 57
588.65 0.00 0.00 0.000 22.34 0.00 26.7 29.4 58
598.65 0.00 0.00 0.000 22.34 -0.00 26.7 29.4 59
608.65 0.00 0.00 0.000 22.34 0.00 26.8 29.5 60
618.65 0.00 0.00 0.000 22.34 0.01 26.7 29.4 61
628.88 0.00 0.00 0.000 22.34 0.01 26.7 29.5 62
638.65 0.00 0.00 0.000 22.34 0.00 26.7 29.5 63
648.65 0.00 0.00 0.000 22.34 -0.00 26.7 29.5 64
658.65 0.00 0.00 0.000 22.34 -0.01 26.7 29.4 65
668.65 0.00 0.00 0.000 22.34 -0.00 26.7 29.5 66
678.65 0.00 0.00 0.000 22.34 0.00 26.7 29.4 67
688.65 0.00 0.00 0.000 22.34 -0.01 26.8 29.5 68
698.65 0.00 0.00 0.000 22.34 -0.00 26.7 29.5 69
708.65 0.00 0.00 0.000 22.34 0.01 26.7 29.4 70
718.65 0.00 0.00 0.000 22.34 -0.00 26.7 29.5 71
728.65 0.00 0.00 0.000 22.34 0.01 26.7 29.5 72
738.65 0.00 0.00 0.000 22.34 -0.00 26.7 29.4 73
748.65 0.00 0.00 0.000 22.34 -0.01 26.8 29.5 74
758.65 0.00 0.00 0.000 22.34 -0.01 26.7 29.5 75
768.65 0.00 0.00 0.000 22.34 -0.01 26.7 29.5 76
778.65 0.00 0.00 0.000 22.34 -0.00 26.7 29.4 77
788.65 0.00 0.00 0.000 22.34 -0.00 26.7 29.4 78
798.65 0.00 0.00 0.000 22.34 0.00 26.7 29.4 79
808.65 0.00 0.00 0.000 22.34 -0.00 26.8 29.4 80
818.65 0.00 0.00 0.000 22.34 -0.01 26.7 29.5 81
828.65 0.00 0.00 0.000 22.34 -0.00 26.7 29.4 82
838.65 0.00 0.00 0.000 22.34 -0.01 26.8 29.5 83
848.65 0.00 0.00 0.000 22.34 -0.00 26.7 29.5 84
858.65 0.00 0.00 0.000 22.34 -0.00 26.8 29.5 85
868.65 0.00 0.00 0.000 22.34 -0.00 26.8 29.5 86
878.88 0.00 0.00 0.000 22.34 -0.00 26.7 29.5 87
888.65 0.00 0.00 0.000 22.34 0.00 26.7 29.5 88
898.65 0.00 0.00 0.000 22.34 0.01 26.7 29.4 89
908.65 0.00 0.00 0.000 22.34 0.00 26.7 29.5 90
918.65 0.00 0.00 0.000 22.34 -0.01 26.8 29.5 91
928.65 0.00 0.00 0.000 22.34 0.00 26.7 29.4 92
938.65 0.00 0.00 0.000 22.34 -0.00 26.7 29.5 93
948.65 0.00 0.00 0.000 22.34 -0.00 26.7 29.5 94
958.65 0.00 0.00 0.000 22.34 -0.01 26.8 29.5 95
968.65 0.00 0.00 0.000 22.34 -0.01 26.7 29.5 96
978.65 0.00 0.00 0.000 22.34 -0.00 26.7 29.4 97
988.65 0.00 0.00 0.000 22.34 0.00 26.7 29.4 98
998.65 0.00 0.00 0.000 22.34 0.00 26.7 29.4 99
1008.65 0.00 0.00 0.000 22.34 0.01 26.7 29.5 100
1018.65 0.00 0.00 0.000 22.34 -0.00 26.7 29.4 101
1028.65 0.00 0.00 0.000 22.34 0.00 26.7 29.4 102
1038.65 0.00 0.00 0.000 22.34 -0.00 26.7 29.4 103
1048.65 0.00 0.00 0.000 22.34 -0.00 26.7 29.4 104
1058.65 0.00 0.00 0.000 22.34 0.00 26.7 29.4 105
1068.65 0.00 0.00 0.000 22.34 -0.00 26.7 29.4 106
1078.65 0.00 0.00 0.000 22.34 -0.00 26.7 29.4 107
1088.65 0.00 0.00 0.000 22.34 0.00 26.7 29.5 108
1098.65 0.00 0.00 0.000 22.34 0.00 26.7 29.4 109
1108.65 0.00 0.00 0.000 22.34 0.01 26.7 29.4 110
1118.65 0.00 0.00 0.000 22.34 0.01 26.7 29.4 111
1128.89 0.00 0.00 0.000 22.34 0.00 26.7 29.5 112
1138.65 0.00 0.00 0.000 22.34 0.01 26.7 29.5 113
1148.65 0.00 0.00 0.000 22.34 0.01 26.7 29.4 114
1158.65 0.00 0.00 0.000 22.34 0.00 26.8 29.5 115
1168.65 0.00 0.00 0.000 22.34 0.00 26.7 29.5 116
1178.65 0.00 0.00 0.000 22.34 0.01 26.7 29.4 117
1188.65 0.00 0.00 0.000 22.34 0.00 26.7 29.4 118
1198.65 0.00 0.00 0.000 22.34 -0.01 26.7 29.5 119
1208.65 0.00 0.00 0.000 22.34 -0.01 26.7 29.5 120
1218.65 0.00 0.00 0.000 22.34 -0.00 26.7 29.4 121
1228.65 0.00 0.00 0.000 22.34 -0.00 26.7 29.4 122
1238.65 0.00 0.00 0.000 22.34 0.01 26.7 29.5 123
1248.65 0.00 0.00 0.000 22.34 0.01 26.7 29.4 124
1258.65 0.00 0.00 0.000 22.34 0.01 26.7 29.5 125
1268.65 0.00 0.00 0.000 22.34 0.01 26.7 29.4 126
1278.65 0.00 0.00 0.000 22.34 0.01 26.7 29.4 127
1288.65 0.00 0.00 0.000 22.34 -0.00 26.7 29.5 128
1298.65 0.00 0.00 0.000 22.34 0.00 26.7 29.5 129
1308.65 0.00 0.00 0.000 22.34 -0.00 26.7 29.4 130
1318.65 0.00 0.00 0.000 22.34 -0.01 26.7 29.5 131
1328.65 0.00 0.00 0.000 22.34 -0.00 26.7 29.4 132
1338.65 0.00 0.00 0.000 22.34 -0.00 26.7 29.5 133
1348.65 0.00 0.00 0.000 22.34 0.00 26.7 29.4 134
1358.65 0.00 0.00 0.000 22.34 -0.00 26.7 29.4 135
1368.65 0.00 0.00 0.000 22.34 -0.00 26.7 29.4 136
1378.89 0.00 0.00 0.000 22.34 0.00 26.7 29.4 137
1388.65 0.00 0.00 0.000 22.34 -0.01 26.7 29.4 138
1398.65 0.00 0.00 0.000 22.34 -0.00 26.7 29.5 139
1408.65 0.00 0.00 0.000 22.34 -0.01 26.7 29.5 140
1418.65 0.00 0.00 0.000 22.34 0.00 26.7 29.5 141
1428.65 0.00 0.00 0.000 22.34 0.01 26.7 29.4 142
1438.65 0.00 0.00 0.000 22.34 0.00 26.7 29.4 143
1448.65 0.00 0.00 0.000 22.34 0.00 26.7 29.4 144
1458.65 0.00 0.00 0.000 22.34 -0.00 26.7 29.5 145
1468.65 0.00 0.00 0.000 22.34 0.01 26.7 29.4 146
1478.65 0.00 0.00 0.000 22.34 0.00 26.7 29.4 147
1488.65 0.00 0.00 0.000 22.34 0.00 26.7 29.4 148
1498.65 0.00 0.00 0.000 22.34 0.00 26.7 29.5 149
1508.65 0.00 0.00 80.000 22.34 0.01 26.7 29.4 150
1518.65 0.00 0.00 80.000 22.34 0.01 26.8 29.4 151
1528.65 0.00 0.00 80.000 22.17 0.80 26.6 29.4 152
1538.65 0.00 0.00 80.000 22.22 0.77 26.8 29.4 153
1548.65 0.00 0.00 80.000 22.31 0.65 26.7 29.6 154
1558.65 0.00 0.00 80.000 22.33 0.49 26.7 29.4 155
1568.65 0.00 0.00 80.000 22.34 0.41 26.8 29.4 156
1578.65 0.00 0.00 80.000 22.32 0.34 26.8 29.4 157
1588.65 0.00 0.00 80.000 22.33 0.35 26.7 29.5 158
1598.65 0.00 0.00 80.000 22.33 0.31 26.7 29.4 159
1608.65 0.00 0.00 80.000 22.34 0.31 26.8 29.5 160
1618.65 0.00 0.00 80.000 22.33 0.32 26.6 29.4 161
1628.90 0.00 0.00 80.000 22.32 0.28 26.7 29.4 162
1638.65 0.00 0.00 80.000 22.32 0.28 26.7 29.5 163
1648.65 0.00 0.00 80.000 22.32 0.28 26.7 29.5 164
1658.65 0.00 0.00 80.000 22.33 0.28 26.7 29.4 165
1668.65 0.00 0.00 80.000 22.34 0.26 26.6 29.4 166
1678.65 0.00 0.00 80.000 22.32 0.25 26.7 29.4 167
1688.65 0.00 0.00 80.000 22.32 0.28 26.6 29.4 168
1698.65 0.00 0.00 80.000 22.32 0.27 26.7 29.3 169
1708.65 0.00 0.00 80.000 22.32 0.27 26.7 29.5 170
1718.65 0.00 1.75 80.000 22.33 0.28 26.7 29.5 171
1728.65 1.77 1.75 80.000 22.32 0.25 26.9 29.7 172
1738.65 1.77 1.75 80.000 22.32 0.28 26.7 29.4 173
1748.65 1.77 1.75 80.000 22.32 0.27 26.7 29.4 174
1758.65 1.77 1.75 80.000 22.32 0.27 26.7 29.3 175
1768.65 1.77 1.75 80.000 22.33 0.27 26.6 29.5 176
1778.65 1.77 3.23 80.000 22.32 0.25 27.0 29.5 177
1788.65 3.26 3.23 80.000 22.32 0.28 26.7 29.4 178
1798.65 3.26 4.29 80.000 22.33 0.27 26.7 29.5 179
1808.65 4.34 4.29 80.000 22.33 0.26 26.8 29.5 180
1818.65 4.34 4.29 80.000 22.33 0.27 26.7 29.5 181
1828.65 4.34 4.29 80.000 22.32 0.24 26.7 29.5 182
1838.65 4.34 4.29 80.000 22.32 0.28 26.8 29.5 183
1848.65 4.34 4.29 80.000 22.32 0.27 26.7 29.5 184
1858.65 5.26 5.19 80.000 22.32 0.26 26.7 29.4 185
1868.65 5.26 5.85 80.000 22.33 0.26 26.6 29.4 186
1878.89 5.92 5.85 80.000 22.33 0.25 26.7 29.5 187
1888.65 5.92 5.85 80.000 22.32 0.26 26.7 29.5 188
1898.65 5.92 5.85 80.000 22.33 0.26 26.7 29.4 189
1908.65 5.92 5.85 80.000 22.32 0.27 26.6 29.5 190
1918.65 5.92 6.45 80.000 22.33 0.27 26.6 29.4 191
1928.65 6.50 6.93 80.000 22.32 0.25 26.7 29.4 192
1938.65 6.95 6.93 80.000 22.33 0.26 26.7 29.4 193
1948.65 6.95 6.93 80.000 22.32 0.25 26.7 29.5 194
1958.65 6.95 6.93 80.000 22.32 0.25 26.7 29.4 195
1968.65 6.95 6.93 80.000 22.32 0.27 26.8 29.5 196
1978.65 6.95 7.39 80.000 22.33 0.25 26.7 29.4 197
1988.65 7.40 7.69 80.000 22.32 0.26 26.8 29.5 198
1998.65 7.72 7.69 80.000 22.33 0.18 26.8 29.4 199
2008.65 7.72 7.69 80.000 22.34 0.17 26.7 29.6 200
2018.65 7.72 7.69 80.000 22.34 0.18 26.6 29.5 201
2028.65 7.72 7.69 80.000 22.32 0.17 26.8 29.6 202
2038.65 7.99 7.96 80.000 22.33 0.19 26.8 29.5 203
2048.65 7.99 8.17 80.000 22.33 0.18 26.9 29.6 204
2058.65 8.15 8.17 80.000 22.33 0.17 26.7 29.5 205
2068.65 8.15 8.17 80.000 22.33 0.18 26.7 29.4 206
2078.65 8.15 8.17 80.000 22.33 0.17 27.0 29.5 207
2088.65 8.15 8.17 80.000 22.33 0.18 26.7 29.4 208
2098.65 8.30 8.33 80.000 22.32 0.19 26.6 29.4 209
2108.65 8.30 8.39 80.000 22.33 0.18 26.8 29.3 210
2118.65 8.41 8.39 80.000 22.33 0.18 26.7 29.6 211
2128.89 8.41 8.39 80.000 22.33 0.19 26.6 29.4 212
2138.65 8.41 8.39 80.000 22.33 0.17 26.8 29.6 213
2148.65 8.41 8.48 80.000 22.32 0.18 26.8 29.6 214
2158.65 8.51 8.48 80.000 22.33 0.18 26.7 29.5 215
2168.65 8.57 8.53 80.000 22.33 0.17 26.7 29.4 216
2178.65 8.57 8.53 80.000 22.33 0.18 26.7 29.4 217
2188.65 8.57 8.53 80.000 22.33 0.18 26.8 29.5 218
2198.65 8.57 8.53 80.000 22.33 0.17 26.7 29.5 219
2208.65 8.57 8.61 80.000 22.33 0.17 27.0 29.4 220
2218.65 8.63 8.70 80.000 22.32 0.19 26.7 29.4 221
2228.65 8.72 8.70 80.000 22.33 0.17 27.0 29.4 222
2238.65 8.72 8.70 80.000 22.33 0.18 26.6 29.5 223
2248.65 8.72 8.70 80.000 22.32 0.18 26.8 29.4 224
2258.65 8.72 8.70 80.000 22.33 0.18 27.0 29.5 225
2268.65 8.73 8.72 80.000 22.32 0.17 26.7 29.5 226
2278.65 8.73 8.75 80.000 22.33 0.18 26.8 29.3 227
2288.65 8.75 8.75 80.000 22.32 0.19 26.6 29.5 228
2298.65 8.75 8.75 80.000 22.33 0.17 26.7 29.5 229
2308.65 8.75 8.75 80.000 22.33 0.17 26.7 29.5 230
2318.65 8.75 8.75 80.000 22.32 0.19 26.8 29.3 231
2328.65 8.79 8.73 80.000 22.33 0.18 26.6 29.3 232
2338.65 8.76 8.74 80.000 22.33 0.17 26.7 29.6 233
2348.65 8.76 8.74 80.000 22.32 0.18 26.7 29.4 234
2358.65 8.76 8.74 80.000 22.33 0.19 26.8 29.4 235
2368.65 8.76 8.74 80.000 22.32 0.17 26.6 29.4 236
2378.89 8.76 8.81 80.000 22.32 0.18 26.8 29.4 237
2388.65 8.77 8.86 80.000 22.33 0.18 26.8 29.4 238
2398.65 8.83 8.86 80.000 22.33 0.18 26.6 29.4 239
2408.65 8.83 8.86 80.000 22.32 0.17 26.9 29.4 240
2418.65 8.83 8.86 80.000 22.32 0.17 27.0 29.4 241
2428.65 8.83 8.86 80.000 22.33 0.19 26.7 29.4 242
2438.65 8.80 8.82 80.000 22.33 0.19 26.6 29.5 243
2448.65 8.80 8.81 80.000 22.33 0.17 26.7 29.5 244
2458.65 8.80 8.81 80.000 22.33 0.17 26.6 29.4 245
2468.65 8.80 8.81 80.000 22.32 0.19 26.8 29.3 246
2478.65 8.80 8.81 80.000 22.32 0.19 26.7 29.3 247
2488.65 8.80 8.88 80.000 22.33 0.17 26.8 29.5 248
2498.65 8.87 8.88 80.000 22.33 0.17 27.0 29.4 249
2508.65 8.91 8.92 80.000 22.33 0.18 26.7 29.4 250
2518.65 8.91 8.92 80.000 22.33 0.18 26.7 29.5 251
2528.65 8.91 8.92 80.000 22.32 0.17 26.6 29.4 252
2538.65 8.91 8.92 80.000 22.33 0.17 26.6 29.3 253
2548.65 8.92 8.93 80.000 22.33 0.17 26.9 29.5 254
2558.65 8.92 8.94 80.000 22.33 0.19 26.6 29.4 255
2568.65 8.93 8.94 80.000 22.32 0.17 26.7 29.4 256
2578.65 8.93 8.94 80.000 22.33 0.18 27.0 29.5 257
2588.65 8.93 8.94 80.000 22.33 0.18 26.8 29.4 258
2598.65 8.93 8.94 80.000 22.32 0.19 26.6 29.4 259
2608.65 8.91 8.91 80.000 22.32 0.18 26.8 29.4 260
2618.65 8.89 8.90 80.000 22.33 0.18 26.7 29.4 261
2628.90 8.89 8.90 80.000 22.33 0.18 26.7 29.5 262
2638.65 8.89 8.90 80.000 22.32 0.18 26.8 29.3 263
2648.65 8.89 8.90 80.000 22.32 0.18 26.8 29.3 264
2658.65 8.89 8.95 80.000 22.33 0.17 26.6 29.3 265
2668.65 8.94 8.99 80.000 22.33 0.18 26.8 29.5 266
2678.65 8.98 8.99 80.000 22.33 0.18 26.7 29.3 267
2688.65 8.98 8.99 80.000 22.32 0.19 26.7 29.5 268
2698.65 8.98 8.99 80.000 22.32 0.17 26.8 29.4 269
2708.65 8.98 8.99 80.000 22.32 0.17 26.8 29.5 270
2718.65 8.99 8.99 80.000 22.33 0.18 26.7 29.4 271
2728.65 8.99 8.99 80.000 22.32 0.18 26.7 29.4 272
2738.65 8.99 8.99 80.000 22.32 0.19 26.8 29.5 273
2748.65 8.99 8.99 80.000 22.33 0.18 26.8 29.3 274
2758.65 8.99 8.99 80.000 22.33 0.17 26.7 29.3 275
2768.65 8.99 9.00 80.000 22.33 0.17 26.9 29.4 276
2778.65 8.99 9.01 80.000 22.32 0.18 26.6 29.4 277
2788.65 9.00 9.01 80.000 22.32 0.18 26.8 29.4 278
2798.65 9.00 9.01 80.000 22.33 0.17 26.7 29.4 279
2808.65 9.00 9.01 80.000 22.33 0.16 26.8 29.4 280
2818.65 9.00 9.01 80.000 22.32 0.18 26.8 29.4 281
2828.65 9.01 9.01 80.000 22.32 0.18 26.7 29.3 282
2838.65 9.01 9.01 80.000 22.33 0.19 26.7 29.5 283
2848.65 9.01 9.01 80.000 22.32 0.17 26.8 29.4 284
2858.65 9.01 9.01 80.000 22.33 0.17 26.7 29.6 285
2868.65 9.01 9.01 80.000 22.33 0.18 26.7 29.3 286
2878.89 9.01 8.97 80.000 22.33 0.18 26.7 29.4 287
2888.65 9.02 9.00 80.000 22.33 0.18 26.7 29.4 288
2898.65 9.03 9.00 80.000 22.33 0.17 26.8 29.4 289
2908.65 9.03 9.00 80.000 22.32 0.17 26.7 29.3 290
2918.65 9.03 9.00 80.000 22.33 0.17 26.8 29.5 291
2928.65 9.03 9.00 80.000 22.32 0.18 26.7 29.6 292
2938.65 9.04 9.01 80.000 22.32 0.18 26.8 29.3 293
2948.65 9.04 8.98 80.000 22.32 0.17 26.7 29.2 294
2958.65 9.04 8.98 80.000 22.32 0.16 26.6 29.3 295
2968.65 9.04 8.98 80.000 22.32 0.18 26.7 29.4 296
2978.65 9.04 8.98 80.000 22.33 0.17 26.7 29.4 297
2988.65 9.04 9.00 80.000 22.32 0.18 26.5 29.4 298
2998.65 9.04 9.00 80.000 22.32 0.19 26.6 29.4 299
3008.65 9.05 9.02 160.000 22.32 0.20 26.7 29.4 300
3018.65 9.05 9.02 160.000 22.27 0.43 26.8 29.4 301
3028.65 9.05 9.02 160.000 22.16 1.26 26.7 29.3 302
3038.65 9.05 9.02 160.000 22.20 1.34 26.7 29.3 303
3048.65 9.18 9.18 160.000 22.24 1.24 26.9 29.5 304
3058.65 9.37 9.40 160.000 22.28 1.03 26.6 29.6 305
3068.65 9.37 9.40 160.000 22.30 0.93 26.6 29.3 306
3078.65 9.37 9.40 160.000 22.30 0.86 26.7 29.7 307
3088.65 10.06 10.12 160.000 22.29 0.85 26.8 29.4 308
3098.65 10.78 10.71 160.000 22.31 0.76 26.5 29.4 309
3108.65 10.78 10.71 160.000 22.30 0.75 26.6 29.4 310
3118.65 10.78 10.71 160.000 22.30 0.68 26.5 29.6 311
3128.89 11.60 11.37 160.000 22.30 0.69 26.6 29.4 312
3138.65 12.13 11.97 160.000 22.30 0.62 26.7 29.4 313
3148.65 12.13 11.97 160.000 22.30 0.63 26.8 29.5 314
3158.65 12.13 12.59 160.000 22.30 0.63 26.7 29.3 315
3168.65 12.54 12.88 160.000 22.30 0.62 26.5 29.4 316
3178.65 12.94 12.88 160.000 22.30 0.61 26.7 29.4 317
3188.65 12.94 12.88 160.000 22.30 0.59 26.7 29.3 318
3198.65 13.36 13.29 160.000 22.29 0.59 26.6 29.3 319
3208.65 13.66 13.61 160.000 22.30 0.57 26.7 29.5 320
3218.65 13.66 13.61 160.000 22.30 0.59 26.7 29.4 321
3228.65 13.66 13.92 160.000 22.30 0.56 26.5 29.3 322
3238.65 14.07 14.25 160.000 22.30 0.58 26.6 29.4 323
3248.65 14.16 14.25 160.000 22.30 0.57 26.5 29.3 324
3258.65 14.16 14.25 160.000 22.30 0.57 26.9 29.4 325
3268.65 14.34 14.35 160.000 22.31 0.54 26.6 29.5 326
3278.65 14.66 14.47 160.000 22.30 0.55 26.6 29.4 327
3288.65 14.66 14.47 160.000 22.30 0.55 26.9 29.3 328
3298.65 14.89 14.76 160.000 22.30 0.55 26.6 29.4 329
3308.65 15.03 14.96 160.000 22.30 0.54 26.8 29.4 330
3318.65 15.03 14.96 160.000 22.30 0.53 26.6 29.4 331
3328.65 15.03 15.09 160.000 22.31 0.54 26.7 29.3 332
3338.65 15.21 15.18 160.000 22.29 0.54 26.8 29.4 333
3348.65 15.21 15.18 160.000 22.30 0.55 26.8 29.5 334
3358.65 15.21 15.18 160.000 22.31 0.54 26.7 29.3 335
3368.65 15.25 15.27 160.000 22.31 0.53 26.6 29.3 336
3378.89 15.32 15.27 160.000 22.30 0.53 26.6 29.4 337
3388.65 15.32 15.27 160.000 22.30 0.52 27.1 29.5 338
3398.65 15.55 15.73 160.000 22.30 0.55 26.7 29.4 339
3408.65 15.71 15.73 160.000 22.31 0.54 26.6 29.5 340
3418.65 15.71 15.73 160.000 22.30 0.53 26.6 29.6 341
3428.65 15.79 15.77 160.000 22.30 0.54 26.6 29.3 342
3438.65 15.85 15.78 160.000 22.30 0.54 26.6 29.4 343
3448.65 15.85 15.78 160.000 22.30 0.54 26.6 29.4 344
3458.65 15.90 15.87 160.000 22.31 0.53 26.6 29.3 345
3468.65 15.96 16.00 160.000 22.31 0.52 26.8 29.5 346
3478.65 15.96 16.00 160.000 22.31 0.52 26.6 29.4 347
3488.65 15.96 15.98 160.000 22.30 0.52 26.8 29.1 348
3498.65 15.92 15.92 160.000 22.30 0.53 26.6 29.4 349
3508.65 15.92 15.92 160.000 22.30 0.53 26.5 29.6 350
3518.65 16.13 16.13 160.000 22.30 0.52 26.7 29.6 351
3528.65 16.30 16.30 160.000 22.30 0.52 26.6 29.3 352
3538.65 16.30 16.30 160.000 22.30 0.53 26.8 29.3 353
3548.65 16.32 16.35 160.000 22.30 0.53 26.7 29.3 354
3558.65 16.36 16.42 160.000 22.30 0.53 26.7 29.3 355
3568.65 16.36 16.42 160.000 22.31 0.51 26.7 29.5 356
3578.65 16.43 16.45 160.000 22.30 0.52 26.6 29.5 357
3588.65 16.47 16.48 160.000 22.31 0.53 26.6 29.6 358
3598.65 16.47 16.48 160.000 22.30 0.52 26.7 29.5 359
3608.65 16.49 16.50 160.000 22.31 0.52 26.6 29.5 360
3618.65 16.51 16.52 160.000 22.30 0.51 26.6 29.4 361
3628.89 16.51 16.52 160.000 22.30 0.52 26.6 29.4 362
3638.65 16.59 16.60 160.000 22.31 0.52 26.5 29.4 363
3648.65 16.64 16.65 160.000 22.30 0.52 26.5 29.4 364
3658.65 16.64 16.65 160.000 22.31 0.52 27.0 29.3 365
3668.65 16.68 16.68 160.000 22.31 0.51 26.8 29.4 366
3678.65 16.70 16.70 160.000 22.31 0.52 26.7 29.3 367
3688.65 16.70 16.70 160.000 22.31 0.52 26.8 29.4 368
3698.65 16.75 16.75 160.000 22.31 0.51 26.7 29.3 369
3708.65 16.78 16.75 160.000 22.30 0.52 26.6 29.4 370
3718.65 16.78 16.75 160.000 22.30 0.52 26.6 29.4 371
3728.65 16.81 16.78 160.000 22.30 0.51 26.8 29.5 372
3738.65 16.75 16.74 160.000 22.31 0.51 26.7 29.4 373
3748.65 16.75 16.74 160.000 22.30 0.53 26.5 29.3 374
3758.65 16.72 16.66 160.000 22.31 0.51 26.6 29.4 375
3768.65 16.93 16.89 160.000 22.30 0.51 26.5 29.5 376
3778.65 16.93 16.89 160.000 22.30 0.52 26.6 29.5 377
3788.65 17.09 17.11 160.000 22.30 0.52 26.6 29.4 378
3798.65 17.07 17.09 160.000 22.30 0.53 26.8 29.4 379
3808.65 17.07 17.09 160.000 22.31 0.49 26.6 29.4 380
3818.65 17.07 17.08 160.000 22.31 0.51 26.7 29.3 381
3828.65 17.04 17.07 160.000 22.30 0.51 26.7 29.3 382
3838.65 17.04 17.07 160.000 22.30 0.51 26.6 29.3 383
3848.65 17.00 17.03 160.000 22.30 0.51 26.6 29.3 384
3858.65 16.88 16.94 160.000 22.31 0.51 26.8 29.2 385
3868.65 16.88 16.94 160.000 22.30 0.50 26.8 29.3 386
3878.89 17.04 17.27 160.000 22.29 0.50 26.7 29.4 387
3888.65 17.26 17.27 160.000 22.30 0.52 26.6 29.4 388
3898.65 17.26 17.27 160.000 22.30 0.52 26.7 29.4 389
3908.65 17.26 17.18 160.000 22.31 0.50 26.6 29.3 390
3918.65 17.19 17.18 160.000 22.31 0.51 26.8 29.4 391
3928.65 17.19 17.18 160.000 22.30 0.52 26.5 29.3 392
3938.65 17.15 17.20 160.000 22.30 0.52 26.6 29.3 393
3948.65 17.15 17.20 160.000 22.30 0.52 26.6 29.3 394
3958.65 17.15 17.33 160.000 22.31 0.51 26.7 29.3 395
3968.65 17.35 17.29 160.000 22.30 0.52 26.4 29.3 396
3978.65 17.35 17.29 160.000 22.30 0.52 26.7 29.3 397
3988.65 17.35 17.24 160.000 22.30 0.52 26.7 29.4 398
3998.65 17.12 17.11 160.000 22.31 0.51 26.7 29.5 399
4008.65 17.12 17.11 160.000 22.30 0.52 26.7 29.4 400
4018.65 17.26 17.26 160.000 22.31 0.49 26.6 29.4 401
4028.65 17.46 17.45 160.000 22.30 0.51 26.5 29.3 402
4038.65 17.46 17.45 160.000 22.30 0.51 26.6 29.4 403
4048.65 17.39 17.37 160.000 22.30 0.51 26.6 29.3 404
4058.65 17.21 17.20 160.000 22.30 0.50 26.6 29.4 405
4068.65 17.21 17.20 160.000 22.31 0.50 26.6 29.6 406
4078.65 17.31 17.26 160.000 22.30 0.52 26.7 29.3 407
4088.65 17.52 17.49 160.000 22.30 0.51 26.6 29.5 408
4098.65 17.52 17.49 160.000 22.31 0.51 26.6 29.3 409
4108.65 17.43 17.45 160.000 22.31 0.51 26.7 29.3 410
4118.65 17.24 17.25 160.000 22.31 0.51 26.6 29.4 411
4128.89 17.24 17.25 160.000 22.30 0.51 26.5 29.4 412
4138.65 17.32 17.54 160.000 22.30 0.51 26.7 29.4 413
4148.65 17.53 17.54 160.000 22.31 0.49 26.6 29.3 414
4158.65 17.53 17.54 160.000 22.30 0.51 26.6 29.4 415
4168.65 17.44 17.46 160.000 22.30 0.51 26.7 29.5 416
4178.65 17.28 17.46 160.000 22.30 0.52 26.7 29.2 417
4188.65 17.28 17.52 160.000 22.30 0.50 26.7 29.3 418
4198.65 17.64 17.50 160.000 22.30 0.52 26.7 29.4 419
4208.65 17.64 17.50 160.000 22.31 0.49 26.6 29.3 420
4218.65 17.64 17.38 160.000 22.31 0.50 26.7 29.3 421
4228.65 17.42 17.39 160.000 22.31 0.52 26.6 29.4 422
4238.65 17.42 17.39 160.000 22.30 0.51 26.6 29.3 423
4248.65 17.59 17.54 160.000 22.30 0.50 26.6 29.5 424
4258.65 17.46 17.48 160.000 22.31 0.51 26.6 29.4 425
4268.65 17.46 17.48 160.000 22.30 0.50 26.7 29.4 426
4278.65 17.29 17.34 160.000 22.31 0.51 26.6 29.4 427
4288.65 17.46 17.44 160.000 22.31 0.51 26.5 29.2 428
4298.65 17.46 17.44 160.000 22.30 0.50 26.6 29.5 429
4308.65 17.66 17.61 160.000 22.31 0.51 26.5 29.3 430
4318.65 17.49 17.44 160.000 22.30 0.51 26.5 29.4 431
4328.65 17.49 17.44 160.000 22.30 0.51 26.6 29.3 432
4338.65 17.49 17.62 160.000 22.30 0.52 26.5 29.3 433
4348.65 17.64 17.62 160.000 22.31 0.50 26.6 29.3 434
4358.65 17.64 17.62 160.000 22.30 0.50 26.4 29.3 435
4368.65 17.53 17.53 160.000 22.30 0.51 26.8 29.3 436
4378.89 17.53 17.53 160.000 22.30 0.51 26.7 29.4 437
4388.65 17.53 17.60 160.000 22.31 0.51 26.8 29.3 438
4398.65 17.57 17.55 160.000 22.31 0.52 26.5 29.3 439
4408.65 17.57 17.55 160.000 22.30 0.50 26.4 29.4 440
4418.65 17.60 17.40 160.000 22.30 0.53 26.6 29.4 441
4428.65 17.65 17.52 160.000 22.31 0.50 26.6 29.2 442
4438.65 17.65 17.52 160.000 22.30 0.50 26.6 29.4 443
4448.65 17.58 17.69 160.000 22.31 0.51 26.5 29.5 444
4458.65 17.41 17.46 160.000 22.31 0.50 26.6 29.5 445
4468.65 17.41 17.46 160.000 22.30 0.51 26.8 29.5 446
4478.65 17.47 17.48 160.000 22.31 0.51 26.6 29.4 447
4488.65 17.66 17.67 160.000 22.30 0.51 26.5 29.5 448
4498.65 17.66 17.67 160.000 22.30 0.50 26.7 29.3 449
4508.65 17.44 17.56 240.000 22.03 2.26 26.5 29.4 450
4518.65 17.49 17.56 240.000 22.17 2.36 26.6 29.5 451
4528.65 17.49 17.56 240.000 22.18 2.20 26.6 29.4 452
4538.65 18.34 18.12 240.000 22.24 1.83 26.6 29.4 453
4548.65 18.34 18.12 240.000 22.25 1.71 26.5 29.5 454
4558.65 18.84 18.70 240.000 22.28 1.45 26.4 29.3 455
4568.65 19.23 19.16 240.000 22.27 1.42 26.5 29.4 456
4578.65 19.23 19.91 240.000 22.26 1.34 26.5 29.3 457
4588.65 20.21 19.97 240.000 22.26 1.26 26.4 29.3 458
4598.65 20.21 19.97 240.000 22.27 1.22 26.4 29.4 459
4608.65 20.27 20.83 240.000 22.27 1.19 26.5 29.3 460
4618.65 20.52 20.83 240.000 22.26 1.19 26.5 29.3 461
4628.89 21.03 21.23 240.000 22.27 1.16 26.3 29.4 462
4638.65 21.37 21.37 240.000 22.27 1.12 26.4 29.3 463
4648.65 21.37 21.55 240.000 22.26 1.16 26.5 29.3 464
4658.65 21.73 21.63 240.000 22.26 1.13 26.6 29.3 465
4668.65 21.73 21.63 240.000 22.27 1.10 26.5 29.4 466
4678.65 22.01 21.95 240.000 22.26 1.10 26.5 29.3 467
4688.65 22.01 21.95 240.000 22.27 1.08 26.6 29.4 468
4698.65 22.07 22.17 240.000 22.27 1.05 26.5 29.4 469
4708.65 22.16 22.17 240.000 22.27 1.08 26.7 29.3 470
4718.65 22.18 22.24 240.000 22.28 1.03 26.8 29.3 471
4728.65 22.30 22.35 240.000 22.26 1.07 26.5 29.3 472
4738.65 22.30 22.41 240.000 22.26 1.04 26.8 29.3 473
4748.65 22.24 22.46 240.000 22.27 1.07 26.6 29.2 474
4758.65 22.24 22.46 240.000 22.27 1.05 26.5 29.3 475
4768.65 22.93 22.38 240.000 22.27 1.08 26.6 29.3 476
4778.65 22.93 22.38 240.000 22.26 1.07 26.6 29.5 477
4788.65 22.91 23.01 240.000 22.26 1.04 26.6 29.3 478
4798.65 22.91 23.01 240.000 22.27 1.06 26.6 29.4 479
4808.65 22.84 23.03 240.000 22.28 1.07 26.5 29.4 480
4818.65 22.86 23.03 240.000 22.27 1.04 26.6 29.2 481
4828.65 23.11 22.87 240.000 22.26 1.06 26.5 29.4 482
4838.65 22.87 22.81 240.000 22.28 1.05 26.5 29.4 483
4848.65 22.95 23.14 240.000 22.26 1.04 26.4 29.5 484
4858.65 23.37 23.30 240.000 22.28 1.03 26.6 29.5 485
4868.65 23.37 23.28 240.000 22.27 1.02 26.5 29.4 486
4878.90 22.96 23.34 240.000 22.26 1.05 26.5 29.3 487
4888.65 22.96 23.36 240.000 22.28 1.05 26.5 29.4 488
4898.65 23.57 23.04 240.000 22.27 1.02 26.6 29.3 489
4908.65 23.57 23.04 240.000 22.27 1.01 26.5 29.4 490
4918.65 23.26 23.58 240.000 22.26 1.03 26.5 29.4 491
4928.65 23.26 23.58 240.000 22.27 1.04 26.6 29.2 492
4938.65 23.71 23.08 240.000 22.26 1.03 26.6 29.3 493
4948.65 23.71 23.08 240.000 22.28 1.02 26.8 29.3 494
4958.65 23.44 23.91 240.000 22.27 1.02 26.6 29.5 495
4968.65 23.32 23.91 240.000 22.27 1.01 26.6 29.5 496
4978.65 23.62 23.74 240.000 22.28 1.03 26.7 29.3 497
4988.65 23.81 23.74 240.000 22.28 1.03 26.5 29.3 498
4998.65 23.51 23.69 240.000 22.27 1.04 26.5 29.3 499
5008.65 23.30 23.66 240.000 22.27 1.02 26.6 29.5 500
5018.65 23.74 23.66 240.000 22.27 1.04 26.5 29.4 501
5028.65 23.96 23.64 240.000 22.27 1.03 26.6 29.4 502
5038.65 23.89 23.56 240.000 22.26 1.05 26.5 29.4 503
5048.65 23.56 23.51 240.000 22.27 1.02 26.6 29.4 504
5058.65 23.56 23.74 240.000 22.27 1.00 26.7 29.4 505
5068.65 23.99 23.89 240.000 22.27 1.00 26.5 29.3 506
5078.65 23.99 23.89 240.000 22.27 1.04 26.7 29.3 507
5088.65 23.92 23.34 240.000 22.27 1.03 26.6 29.4 508
5098.65 23.92 23.34 240.000 22.27 1.04 26.5 29.4 509
5108.65 23.51 24.17 240.000 22.28 1.02 26.4 29.2 510
5118.65 23.51 24.17 240.000 22.27 1.05 26.6 29.3 511
5128.90 24.10 24.04 240.000 22.27 1.03 26.5 29.4 512
5138.65 24.10 24.04 240.000 22.27 1.03 26.6 29.5 513
5148.65 23.98 23.60 240.000 22.27 1.03 26.5 29.3 514
5158.65 23.98 23.60 240.000 22.29 1.04 26.5 29.3 515
5168.65 23.79 24.15 240.000 22.27 1.03 26.5 29.4 516
5178.65 23.74 24.15 240.000 22.27 1.04 26.5 29.3 517
5188.65 23.96 24.06 240.000 22.28 1.04 26.5 29.4 518
5198.65 24.11 24.06 240.000 22.27 0.98 26.5 29.3 519
5208.65 24.07 23.84 240.000 22.27 1.01 26.5 29.3 520
5218.65 24.03 23.70 240.000 22.28 0.99 26.6 29.2 521
5228.65 23.89 24.00 240.000 22.27 1.02 26.6 29.6 522
5238.65 23.81 24.18 240.000 22.27 0.99 26.6 29.4 523
5248.65 24.01 24.12 240.000 22.28 1.04 26.6 29.5 524
5258.65 24.14 24.08 240.000 22.27 1.03 26.4 29.3 525
5268.65 24.07 23.85 240.000 22.28 1.01 26.8 29.3 526
5278.65 24.03 23.70 240.000 22.27 1.02 26.4 29.3 527
5288.65 24.03 24.00 240.000 22.27 1.03 26.4 29.3 528
5298.65 23.82 24.20 240.000 22.28 1.03 26.6 29.2 529
5308.65 23.82 24.13 240.000 22.28 0.99 26.5 29.4 530
5318.65 24.24 24.16 240.000 22.27 1.00 26.6 29.4 531
5328.65 24.24 24.16 240.000 22.27 1.01 26.4 29.3 532
5338.65 24.09 23.70 240.000 22.28 1.00 26.4 29.4 533
5348.65 24.09 23.70 240.000 22.28 1.03 26.5 29.3 534
5358.65 23.74 24.38 240.000 22.28 1.03 26.4 29.4 535
5368.65 23.74 24.38 240.000 22.27 1.02 26.4 29.3 536
5378.89 24.33 24.20 240.000 22.26 1.03 26.4 29.5 537
5388.65 24.33 24.20 240.000 22.27 1.01 26.5 29.4 538
5398.65 24.24 23.63 240.000 22.27 1.00 26.7 29.3 539
5408.65 24.24 23.63 240.000 22.27 0.99 26.5 29.3 540
5418.65 23.84 24.32 240.000 22.28 1.00 26.6 29.4 541
5428.65 23.60 24.32 240.000 22.27 1.03 26.4 29.4 542
5438.65 24.06 24.32 240.000 22.28 1.03 26.4 29.3 543
5448.65 24.38 24.32 240.000 22.27 1.05 26.6 29.3 544
5458.65 24.30 24.19 240.000 22.27 0.99 26.6 29.4 545
5468.65 24.27 24.19 240.000 22.27 0.98 26.5 29.3 546
5478.65 24.23 23.99 240.000 22.26 1.00 26.4 29.3 547
5488.65 24.20 23.86 240.000 22.28 1.00 26.5 29.3 548
5498.65 24.02 24.11 240.000 22.27 1.03 26.4 29.3 549
5508.65 23.90 24.34 240.000 22.27 1.03 26.5 29.5 550
5518.65 24.20 24.29 240.000 22.28 0.98 26.7 29.4 551
5528.65 24.40 24.19 240.000 22.27 1.02 26.7 29.5 552
5538.65 24.25 23.88 240.000 22.27 1.01 26.6 29.2 553
5548.65 24.15 23.67 240.000 22.27 1.01 26.7 29.3 554
5558.65 24.15 24.11 240.000 22.28 1.02 26.5 29.3 555
5568.65 23.65 24.41 240.000 22.27 0.98 26.5 29.3 556
5578.65 23.65 24.34 240.000 22.26 1.00 26.4 29.3 557
5588.65 24.40 24.29 240.000 22.27 1.01 26.6 29.3 558
5598.65 24.40 24.26 240.000 22.28 1.01 26.5 29.3 559
5608.65 24.26 24.24 240.000 22.27 1.00 26.5 29.3 560
5618.65 24.26 24.24 240.000 22.27 0.98 26.5 29.2 561
5628.89 24.20 23.89 240.000 22.27 0.99 26.4 29.4 562
5638.65 24.20 23.89 240.000 22.28 1.00 26.4 29.4 563
5648.65 23.89 24.35 240.000 22.27 1.02 26.5 29.3 564
5658.65 23.89 24.35 240.000 22.27 0.99 26.5 29.2 565
5668.65 24.29 24.19 240.000 22.27 1.00 26.6 29.3 566
5678.65 24.29 24.19 240.000 22.27 0.99 26.5 29.3 567
5688.65 24.22 23.67 240.000 22.28 0.98 26.5 29.3 568
5698.65 24.22 23.67 240.000 22.28 0.98 26.5 29.4 569
5708.65 23.90 24.41 240.000 22.28 0.99 26.5 29.3 570
5718.65 23.68 24.41 240.000 22.27 0.99 26.5 29.4 571
5728.65 24.12 24.29 240.000 22.26 1.00 26.6 29.3 572
5738.65 24.41 24.29 240.000 22.27 1.02 26.7 29.3 573
5748.65 24.33 23.99 240.000 22.27 1.02 26.5 29.3 574
5758.65 24.27 23.99 240.000 22.28 0.99 26.3 29.4 575
5768.65 23.88 24.26 240.000 22.27 0.99 26.6 29.3 576
5778.65 23.60 24.04 240.000 22.28 0.99 26.6 29.4 577
5788.65 24.00 24.16 240.000 22.27 1.00 26.4 29.3 578
5798.65 24.27 24.31 240.000 22.27 0.99 26.5 29.5 579
5808.65 24.38 24.27 240.000 22.27 0.98 26.6 29.3 580
5818.65 24.45 24.18 240.000 22.28 1.00 26.4 29.4 581
5828.65 24.30 23.94 240.000 22.27 0.99 26.4 29.3 582
5838.65 24.18 23.77 240.000 22.28 0.99 26.4 29.5 583
5848.65 24.18 24.12 240.000 22.28 0.99 26.6 29.4 584
5858.65 23.78 24.34 240.000 22.28 1.00 26.3 29.3 585
5868.65 23.78 24.23 240.000 22.28 0.96 26.6 29.4 586
5878.89 24.35 24.20 240.000 22.27 1.00 26.4 29.2 587
5888.65 24.35 24.20 240.000 22.27 0.99 26.6 29.3 588
5898.65 24.25 23.67 240.000 22.28 1.00 26.4 29.3 589
5908.65 24.25 23.67 240.000 22.28 1.00 26.4 29.3 590
5918.65 23.61 24.34 240.000 22.28 0.99 26.4 29.6 591
5928.65 23.61 24.34 240.000 22.27 1.01 26.6 29.4 592
5938.65 24.38 24.25 240.000 22.26 1.00 26.5 29.3 593
5948.65 24.38 24.25 240.000 22.28 0.99 26.4 29.2 594
5958.65 24.27 23.98 240.000 22.28 0.99 26.5 29.3 595
5968.65 24.27 23.98 240.000 22.27 1.01 26.5 29.3 596
5978.65 24.20 24.03 240.000 22.28 1.00 26.7 29.3 597
5988.65 24.20 24.03 240.000 22.28 1.01 26.4 29.3 598
5998.65 24.02 24.30 240.000 22.28 1.01 26.4 29.3 599
6008.65 23.88 24.30 320.000 21.98 3.61 26.4 29.3 600
6018.65 24.19 24.34 320.000 22.08 3.60 26.4 29.3 601
6028.65 24.47 24.34 320.000 22.14 3.14 26.4 29.4 602
6038.65 24.72 25.08 320.000 22.14 2.94 26.4 29.4 603
6048.65 24.81 25.08 320.000 22.16 2.87 26.3 29.2 604
6058.65 26.36 25.81 320.000 22.21 2.55 26.4 29.4 605
6068.65 26.36 25.81 320.000 22.22 2.41 26.4 29.2 606
6078.65 26.73 26.69 320.000 22.20 2.39 26.4 29.4 607
6088.65 26.73 27.14 320.000 22.21 2.17 26.4 29.3 608
6098.65 27.57 27.61 320.000 22.23 2.09 26.4 29.3 609
6108.65 27.90 27.84 320.000 22.23 2.00 26.5 29.3 610
6118.65 27.62 28.08 320.000 22.22 1.96 26.4 29.2 611
6128.89 27.93 28.37 320.000 22.23 1.84 26.4 29.3 612
6138.65 28.00 28.37 320.000 22.22 1.91 26.7 29.2 613
6148.65 29.05 28.47 320.000 22.24 1.79 26.4 29.3 614
6158.65 29.05 28.60 320.000 22.23 1.90 26.5 29.3 615
6168.65 28.96 28.58 320.000 22.23 1.73 26.2 29.3 616
6178.65 28.92 28.75 320.000 22.22 1.76 26.3 29.3 617
6188.65 28.88 28.69 320.000 22.24 1.79 26.3 29.4 618
6198.65 29.45 29.36 320.000 22.25 1.70 26.5 29.2 619
6208.65 29.45 29.36 320.000 22.25 1.74 26.4 29.1 620
6218.65 29.28 29.12 320.000 22.24 1.74 26.5 29.3 621
6228.65 29.32 29.03 320.000 22.24 1.69 26.5 29.5 622
6238.65 29.07 29.17 320.000 22.23 1.73 26.5 29.4 623
6248.65 29.11 29.53 320.000 22.24 1.71 26.4 29.4 624
6258.65 28.92 29.53 320.000 22.23 1.75 26.7 29.3 625
6268.65 29.50 29.29 320.000 22.23 1.79 26.3 29.3 626
6278.65 29.50 29.32 320.000 22.24 1.71 26.3 29.5 627
6288.65 29.42 29.17 320.000 22.24 1.69 26.5 29.3 628
6298.65 30.01 29.61 320.000 22.24 1.69 26.4 29.3 629
6308.65 29.79 29.61 320.000 22.24 1.73 26.5 29.3 630
6318.65 29.35 29.79 320.000 22.26 1.68 26.4 29.3 631
6328.65 29.35 29.67 320.000 22.23 1.69 26.3 29.3 632
6338.65 29.69 29.58 320.000 22.23 1.75 26.4 29.3 633
6348.65 29.33 29.62 320.000 22.24 1.64 26.3 29.3 634
6358.65 29.47 29.26 320.000 22.24 1.66 26.4 29.3 635
6368.65 29.86 29.72 320.000 22.25 1.65 26.4 29.3 636
6378.89 29.86 29.72 320.000 22.24 1.71 26.4 29.5 637
6388.65 29.45 29.45 320.000 22.23 1.70 26.4 29.2 638
6398.65 29.40 30.21 320.000 22.22 1.71 26.5 29.3 639
6408.65 29.80 29.94 320.000 22.24 1.68 26.5 29.6 640
6418.65 29.49 29.42 320.000 22.25 1.68 26.1 29.3 641
6428.65 29.49 29.42 320.000 22.25 1.66 26.4 29.3 642
6438.65 29.86 29.79 320.000 22.24 1.61 26.5 29.4 643
6448.65 29.80 29.48 320.000 22.23 1.68 26.3 29.4 644
6458.65 29.49 29.55 320.000 22.24 1.71 26.4 29.3 645
6468.65 29.78 29.89 320.000 22.25 1.65 26.8 29.5 646
6478.65 29.78 29.89 320.000 22.26 1.66 26.6 29.2 647
6488.65 29.55 29.40 320.000 22.24 1.66 26.3 29.2 648
6498.65 30.12 29.22 320.000 22.24 1.66 26.5 29.3 649
6508.65 29.99 29.90 320.000 22.25 1.66 26.4 29.2 650
6518.65 29.81 29.99 320.000 22.24 1.71 26.4 29.2 651
6528.65 29.39 29.99 320.000 22.22 1.71 26.4 29.4 652
6538.65 29.83 29.64 320.000 22.24 1.64 26.4 29.4 653
6548.65 30.09 29.66 320.000 22.21 1.68 26.4 29.3 654
6558.65 29.96 29.39 320.000 22.23 1.67 26.5 29.2 655
6568.65 29.87 29.82 320.000 22.24 1.65 26.3 29.2 656
6578.65 29.73 29.82 320.000 22.23 1.71 26.4 29.2 657
6588.65 29.27 30.03 320.000 22.24 1.66 26.4 29.4 658
6598.65 29.27 29.92 320.000 22.23 1.74 26.5 29.2 659
6608.65 29.82 29.56 320.000 22.24 1.65 26.6 29.2 660
6618.65 30.21 29.87 320.000 22.22 1.70 26.4 29.3 661
6628.89 30.06 29.87 320.000 22.23 1.66 26.5 29.2 662
6638.65 29.66 29.88 320.000 22.24 1.67 26.4 29.3 663
6648.65 29.66 29.77 320.000 22.24 1.64 26.3 29.3 664
6658.65 29.34 29.75 320.000 22.25 1.61 26.4 29.2 665
6668.65 29.08 29.71 320.000 22.24 1.62 26.4 29.3 666
6678.65 29.80 29.33 320.000 22.25 1.67 26.4 29.1 667
6688.65 30.08 29.83 320.000 22.24 1.64 26.4 29.3 668
6698.65 30.08 29.83 320.000 22.23 1.68 26.4 29.4 669
6708.65 29.59 29.57 320.000 22.25 1.64 26.4 29.2 670
6718.65 29.44 30.25 320.000 22.24 1.65 26.5 29.3 671
6728.65 29.91 29.96 320.000 22.23 1.62 26.3 29.3 672
6738.65 29.62 29.53 320.000 22.24 1.66 26.5 29.3 673
6748.65 29.62 29.53 320.000 22.24 1.62 26.5 29.4 674
6758.65 29.81 29.85 320.000 22.23 1.69 26.4 29.5 675
6768.65 29.74 30.25 320.000 22.24 1.60 26.4 29.4 676
6778.65 29.48 30.08 320.000 22.22 1.70 26.3 29.3 677
6788.65 29.91 29.60 320.000 22.25 1.63 26.5 29.5 678
6798.65 29.91 29.60 320.000 22.24 1.68 26.4 29.3 679
6808.65 30.09 29.87 320.000 22.24 1.63 26.5 29.4 680
6818.65 29.96 29.43 320.000 22.24 1.69 26.3 29.5 681
6828.65 29.67 29.54 320.000 22.24 1.70 26.3 29.3 682
6838.65 29.92 29.97 320.000 22.23 1.67 26.7 29.6 683
6848.65 29.92 29.97 320.000 22.23 1.69 26.4 29.4 684
6858.65 29.46 29.45 320.000 22.23 1.67 26.6 29.4 685
6868.65 30.05 29.34 320.000 22.25 1.69 26.4 29.3 686
6878.89 30.04 29.86 320.000 22.23 1.67 26.4 29.3 687
6888.65 29.92 29.58 320.000 22.22 1.71 26.3 29.2 688
6898.65 29.47 29.58 320.000 22.24 1.65 26.4 29.3 689
6908.65 29.87 29.96 320.000 22.25 1.69 26.4 29.2 690
6918.65 29.87 29.91 320.000 22.24 1.64 26.5 29.3 691
6928.65 29.59 29.56 320.000 22.23 1.66 26.2 29.5 692
6938.65 30.14 29.91 320.000 22.23 1.69 26.3 29.3 693
6948.65 29.91 29.91 320.000 22.23 1.67 26.4 29.2 694
6958.65 29.44 30.07 320.000 22.25 1.69 26.3 29.2 695
6968.65 29.44 29.95 320.000 22.24 1.62 26.4 29.4 696
6978.65 29.91 29.58 320.000 22.23 1.73 26.4 29.3 697
6988.65 30.24 29.88 320.000 22.24 1.66 26.4 29.3 698
6998.65 30.06 29.88 320.000 22.24 1.63 26.5 29.3 699
7008.65 29.66 29.60 320.000 22.24 1.69 26.3 29.3 700
7018.65 29.66 30.15 320.000 22.23 1.62 26.5 29.3 701
7028.65 29.93 29.95 320.000 22.23 1.67 26.4 29.4 702
7038.65 29.47 29.97 320.000 22.23 1.68 26.7 29.4 703
7048.65 29.55 29.49 320.000 22.23 1.66 26.5 29.3 704
7058.65 29.99 29.94 320.000 22.24 1.68 26.4 29.3 705
7068.65 29.99 30.16 320.000 22.23 1.64 26.4 29.4 706
7078.65 29.46 30.01 320.000 22.23 1.66 26.3 29.4 707
7088.65 29.34 29.89 320.000 22.23 1.70 26.6 29.1 708
7098.65 29.86 29.64 320.000 22.25 1.64 26.4 29.5 709
7108.65 30.07 29.40 320.000 22.23 1.68 26.3 29.3 710
7118.65 30.07 29.40 320.000 22.23 1.67 26.4 29.3 711
7128.89 29.68 29.83 320.000 22.23 1.66 26.4 29.4 712
7138.65 29.70 30.30 320.000 22.23 1.67 26.4 29.3 713
7148.65 29.42 30.10 320.000 22.24 1.62 26.6 29.3 714
7158.65 29.82 29.61 320.000 22.24 1.68 26.5 29.5 715
7168.65 29.82 29.61 320.000 22.25 1.61 26.4 29.3 716
7178.65 30.04 29.94 320.000 22.24 1.65 26.3 29.5 717
7188.65 29.92 29.58 320.000 22.23 1.68 26.3 29.3 718
7198.65 29.57 29.62 320.000 22.25 1.61 26.4 29.3 719
7208.65 29.89 29.90 320.000 22.24 1.66 26.6 29.5 720
7218.65 29.89 29.90 320.000 22.23 1.68 26.3 29.3 721
7228.65 29.59 29.42 320.000 22.22 1.65 26.3 29.3 722
7238.65 30.13 29.23 320.000 22.22 1.67 26.3 29.2 723
7248.65 30.00 29.90 320.000 22.25 1.64 26.4 29.4 724
7258.65 29.87 29.99 320.000 22.23 1.68 26.4 29.2 725
7268.65 29.43 29.99 320.000 22.25 1.66 26.3 29.2 726
7278.65 29.93 29.71 320.000 22.23 1.64 26.4 29.4 727
7288.65 30.15 29.60 320.000 22.24 1.67 26.5 29.2 728
7298.65 30.00 29.94 320.000 22.24 1.61 26.3 29.5 729
7308.65 29.98 29.55 320.000 22.24 1.69 26.4 29.3 730
7318.65 29.71 29.55 320.000 22.23 1.65 26.3 29.4 731
7328.65 29.36 29.98 320.000 22.23 1.67 26.4 29.3 732
7338.65 29.36 29.89 320.000 22.24 1.69 26.3 29.1 733
7348.65 29.81 29.46 320.000 22.25 1.66 26.4 29.2 734
7358.65 30.27 29.88 320.000 22.24 1.63 26.3 29.4 735
7368.65 30.10 29.88 320.000 22.24 1.64 26.3 29.3 736
7378.89 29.59 29.59 320.000 22.23 1.65 26.7 29.3 737
7388.65 29.59 30.14 320.000 22.23 1.72 26.4 29.2 738
7398.65 29.94 29.90 320.000 22.24 1.64 26.4 29.2 739
7408.65 29.58 29.93 320.000 22.24 1.70 26.3 29.2 740
7418.65 29.62 29.57 320.000 22.23 1.65 26.3 29.1 741
7428.65 29.91 29.90 320.000 22.23 1.66 26.3 29.2 742
7438.65 29.91 30.25 320.000 22.24 1.69 26.3 29.3 743
7448.65 29.42 30.07 320.000 22.24 1.69 26.3 29.3 744
7458.65 29.23 29.95 320.000 22.25 1.64 26.3 29.3 745
7468.65 29.90 29.58 320.000 22.23 1.71 26.2 29.3 746
7478.65 30.14 29.89 320.000 22.24 1.62 26.2 29.3 747
7488.65 30.14 29.89 320.000 22.24 1.67 26.5 29.3 748
7498.65 29.63 29.63 320.000 22.24 1.70 26.4 29.3 749
7508.65 29.57 30.24 400.000 21.91 6.18 26.4 29.5 750
7518.65 29.90 29.96 400.000 21.94 6.08 26.3 29.3 751
7528.65 30.55 30.53 400.000 21.99 5.51 26.4 29.3 752
7538.65 31.23 31.34 400.000 22.05 5.04 26.4 29.3 753
7548.65 31.94 31.76 400.000 22.10 4.48 26.2 29.4 754
7558.65 32.71 32.66 400.000 22.12 4.02 26.2 29.3 755
7568.65 33.06 33.02 400.000 22.13 3.90 26.2 29.5 756
7578.65 33.16 33.37 400.000 22.15 3.51 26.3 29.3 757
7588.65 33.52 33.74 400.000 22.16 3.43 26.2 29.3 758
7598.65 33.98 34.53 400.000 22.17 3.12 26.2 29.2 759
7608.65 34.99 34.38 400.000 22.14 3.10 26.2 29.3 760
7618.65 34.73 34.39 400.000 22.17 3.09 26.2 29.3 761
7628.89 35.48 35.43 400.000 22.17 3.02 26.2 29.0 762
7638.65 34.72 35.69 400.000 22.17 2.91 26.3 29.3 763
7648.65 35.85 35.44 400.000 22.18 2.90 26.4 29.3 764
7658.65 35.36 35.62 400.000 22.16 2.90 26.4 29.2 765
7668.65 36.24 35.25 400.000 22.16 2.75 26.3 29.1 766
7678.65 35.28 35.41 400.000 22.18 2.80 26.4 29.1 767
7688.65 36.10 35.33 400.000 22.20 2.73 26.3 29.4 768
7698.65 36.27 36.15 400.000 22.16 2.83 26.2 29.3 769
7708.65 35.81 36.15 400.000 22.18 2.81 26.2 29.4 770
7718.65 36.05 35.32 400.000 22.19 2.74 26.2 29.3 771
7728.65 35.44 36.18 400.000 22.18 2.79 26.4 29.3 772
7738.65 36.28 35.62 400.000 22.19 2.87 26.2 29.2 773
7748.65 35.55 35.66 400.000 22.18 2.72 26.3 29.4 774
7758.65 36.14 35.26 400.000 22.18 2.71 26.1 29.0 775
7768.65 36.43 36.50 400.000 22.17 2.69 26.2 29.3 776
7778.65 35.85 36.36 400.000 22.17 2.78 26.3 29.2 777
7788.65 36.38 35.89 400.000 22.18 2.74 26.2 29.3 778
7798.65 35.44 36.24 400.000 22.20 2.72 26.2 29.2 779
7808.65 36.44 35.53 400.000 22.17 2.77 26.5 29.2 780
7818.65 36.48 35.60 400.000 22.19 2.76 26.2 29.1 781
7828.65 35.71 35.49 400.000 22.20 2.66 26.2 29.3 782
7838.65 36.44 36.35 400.000 22.18 2.70 26.3 29.2 783
7848.65 35.66 36.60 400.000 22.18 2.78 26.4 29.3 784
7858.65 36.27 35.76 400.000 22.19 2.70 26.3 29.2 785
7868.65 35.86 36.50 400.000 22.15 2.75 26.4 29.4 786
7878.89 35.82 36.36 400.000 22.20 2.70 26.4 29.4 787
7888.65 36.45 35.68 400.000 22.18 2.71 26.2 29.4 788
7898.65 35.92 36.50 400.000 22.18 2.57 26.2 29.2 789
7908.65 36.09 35.61 400.000 22.18 2.75 26.5 29.3 790
7918.65 36.09 36.56 400.000 22.16 2.75 26.3 29.4 791
7928.65 35.55 36.39 400.000 22.18 2.72 26.4 29.4 792
7938.65 35.61 35.79 400.000 22.18 2.70 26.2 29.1 793
7948.65 35.37 36.36 400.000 22.17 2.76 26.2 29.4 794
7958.65 36.40 35.61 400.000 22.19 2.75 26.4 29.1 795
7968.65 35.79 36.35 400.000 22.19 2.75 26.4 29.2 796
7978.65 36.50 35.90 400.000 22.14 2.72 26.5 29.4 797
7988.65 36.37 35.85 400.000 22.20 2.75 26.4 29.4 798
7998.65 35.90 36.40 400.000 22.17 2.67 26.3 29.2 799
8008.65 36.24 35.32 400.000 22.17 2.66 26.2 29.3 800
8018.65 35.52 36.64 400.000 22.16 2.79 26.2 29.4 801
8028.65 35.68 36.64 400.000 22.19 2.74 26.3 29.4 802
8038.65 36.31 35.80 400.000 22.20 2.62 26.4 29.3 803
8048.65 35.87 35.72 400.000 22.19 2.65 26.3 29.3 804
8058.65 36.41 35.45 400.000 22.17 2.82 26.3 29.3 805
8068.65 35.52 36.30 400.000 22.18 2.68 26.8 29.3 806
8078.65 36.45 35.85 400.000 22.18 2.76 26.2 29.3 807
8088.65 36.50 36.38 400.000 22.20 2.65 26.3 29.5 808
8098.65 35.83 36.29 400.000 22.17 2.70 26.1 29.2 809
8108.65 36.43 35.96 400.000 22.17 2.78 26.2 29.4 810
8118.65 36.03 36.27 400.000 22.18 2.67 26.2 29.2 811
8128.89 35.92 35.55 400.000 22.16 2.73 26.4 29.5 812
8138.65 36.05 35.40 400.000 22.19 2.73 26.2 29.3 813
8148.65 35.61 36.55 400.000 22.18 2.63 26.3 29.3 814
8158.65 36.39 35.83 400.000 22.17 2.76 26.3 29.3 815
8168.65 35.61 36.40 400.000 22.18 2.73 26.1 29.4 816
8178.65 36.40 35.64 400.000 22.18 2.81 26.2 29.3 817
8188.65 35.78 36.35 400.000 22.20 2.68 26.2 29.1 818
8198.65 35.77 36.42 400.000 22.17 2.60 26.3 29.4 819
8208.65 36.50 35.91 400.000 22.18 2.83 26.3 29.4 820
8218.65 35.90 36.25 400.000 22.17 2.76 26.4 29.2 821
8228.65 36.31 35.59 400.000 22.18 2.76 26.2 29.3 822
8238.65 36.31 36.38 400.000 22.20 2.76 26.4 29.3 823
8248.65 35.57 36.30 400.000 22.18 2.65 26.2 29.2 824
8258.65 36.32 35.80 400.000 22.19 2.65 26.2 29.5 825
8268.65 35.71 36.35 400.000 22.19 2.80 26.2 29.2 826
8278.65 35.79 35.65 400.000 22.19 2.64 26.2 29.3 827
8288.65 35.61 36.37 400.000 22.18 2.66 26.1 29.4 828
8298.65 36.32 35.80 400.000 22.17 2.68 26.2 29.2 829
8308.65 36.41 35.91 400.000 22.14 2.71 26.3 29.2 830
8318.65 35.93 36.43 400.000 22.19 2.68 26.3 29.2 831
8328.65 36.33 36.01 400.000 22.17 2.74 26.3 29.4 832
8338.65 35.46 36.13 400.000 22.20 2.83 26.2 29.2 833
8348.65 35.55 36.13 400.000 22.18 2.67 26.4 29.4 834
8358.65 36.53 35.70 400.000 22.20 2.55 26.2 29.2 835
8368.65 35.74 35.55 400.000 22.19 2.79 26.2 29.3 836
8378.89 36.48 35.31 400.000 22.19 2.79 26.3 29.2 837
8388.65 36.28 36.29 400.000 22.18 2.68 26.4 29.4 838
8398.65 35.88 35.77 400.000 22.19 2.58 26.2 29.3 839
8408.65 36.27 36.51 400.000 22.15 2.77 26.2 29.4 840
8418.65 35.61 36.39 400.000 22.20 2.68 26.2 29.2 841
8428.65 36.36 35.89 400.000 22.17 2.74 26.5 29.3 842
8438.65 35.96 36.33 400.000 22.17 2.71 26.2 29.2 843
8448.65 36.03 35.59 400.000 22.18 2.60 26.3 29.2 844
8458.65 36.22 35.64 400.000 22.18 2.68 26.1 29.4 845
8468.65 35.66 36.33 400.000 22.19 2.80 26.2 29.3 846
8478.65 36.37 35.82 400.000 22.16 2.69 26.3 29.1 847
8488.65 36.37 36.40 400.000 22.19 2.72 26.2 29.4 848
8498.65 35.79 35.66 400.000 22.18 2.76 26.4 29.3 849
8508.65 35.76 36.45 400.000 22.18 2.71 26.4 29.3 850
8518.65 35.60 36.63 400.000 22.18 2.74 26.4 29.4 851
8528.65 36.24 35.85 400.000 22.16 2.73 26.3 29.4 852
8538.65 35.87 36.40 400.000 22.18 2.76 26.2 29.2 853
8548.65 36.48 35.96 400.000 22.15 2.72 26.4 29.3 854
8558.65 36.48 35.89 400.000 22.18 2.75 26.4 29.0 855
8568.65 35.48 36.11 400.000 22.18 2.62 26.1 29.2 856
8578.65 36.51 35.69 400.000 22.17 2.68 26.2 29.4 857
8588.65 35.73 36.33 400.000 22.18 2.71 26.1 29.4 858
8598.65 35.72 36.33 400.000 22.18 2.64 26.3 29.4 859
8608.65 35.67 35.82 400.000 22.18 2.75 26.1 29.5 860
8618.65 36.26 35.52 400.000 22.18 2.71 26.2 29.2 861
8628.89 36.52 35.58 400.000 22.20 2.65 26.3 29.3 862
8638.65 35.86 36.47 400.000 22.20 2.76 26.2 29.3 863
8648.65 36.38 35.90 400.000 22.19 2.65 26.5 29.3 864
8658.65 36.29 36.25 400.000 22.17 2.74 26.1 29.4 865
8668.65 35.98 36.25 400.000 22.19 2.71 26.0 29.2 866
8678.65 36.23 35.61 400.000 22.17 2.69 26.3 29.3 867
8688.65 35.65 36.30 400.000 22.17 2.73 26.1 29.3 868
8698.65 36.57 35.68 400.000 22.17 2.74 26.3 29.4 869
8708.65 36.35 35.81 400.000 22.17 2.68 26.1 29.2 870
8718.65 35.80 35.68 400.000 22.19 2.68 26.1 29.3 871
8728.65 36.35 36.35 400.000 22.15 2.63 26.2 29.3 872
8738.65 35.62 36.45 400.000 22.18 2.73 26.0 29.5 873
8748.65 36.35 35.80 400.000 22.17 2.69 26.4 29.2 874
8758.65 35.93 36.51 400.000 22.19 2.78 26.3 29.3 875
8768.65 35.88 36.39 400.000 22.17 2.73 26.3 29.4 876
8778.65 36.41 35.98 400.000 22.17 2.67 26.3 29.3 877
8788.65 35.54 36.12 400.000 22.18 2.70 26.0 29.3 878
8798.65 36.52 35.70 400.000 22.16 2.62 26.2 29.2 879
8808.65 36.52 36.48 400.000 22.20 2.72 26.3 29.2 880
8818.65 35.74 35.55 400.000 22.17 2.82 26.4 29.3 881
8828.65 35.69 36.46 400.000 22.15 2.73 26.4 29.2 882
8838.65 35.44 36.64 400.000 22.16 2.72 26.1 29.3 883
8848.65 36.28 35.73 400.000 22.18 2.66 26.1 29.5 884
8858.65 35.87 36.49 400.000 22.19 2.83 26.2 29.3 885
8868.65 36.37 35.87 400.000 22.20 2.69 26.1 29.4 886
8878.89 36.28 35.96 400.000 22.17 2.67 26.3 29.2 887
8888.65 35.97 36.41 400.000 22.17 2.71 26.3 29.3 888
8898.65 36.37 35.59 400.000 22.16 2.70 26.1 29.3 889
8908.65 35.50 36.46 400.000 22.21 2.81 26.2 29.4 890
8918.65 35.58 36.46 400.000 22.15 2.81 26.2 29.2 891
8928.65 36.39 35.79 400.000 22.19 2.68 26.2 29.2 892
8938.65 35.74 35.71 400.000 22.20 2.56 26.4 29.3 893
8948.65 36.33 35.45 400.000 22.17 2.78 26.2 29.5 894
8958.65 35.60 36.30 400.000 22.18 2.69 26.1 29.2 895
8968.65 36.48 35.87 400.000 22.19 2.69 26.2 29.4 896
8978.65 36.51 36.39 400.000 22.18 2.73 26.1 29.2 897
8988.65 35.85 36.31 400.000 22.19 2.70 26.3 29.3 898
8998.65 36.46 35.97 400.000 22.19 2.67 26.1 29.2 899
9008.65 36.00 36.27 480.000 21.84 8.76 26.4 29.3 900
9018.65 36.22 35.58 480.000 21.92 8.09 26.2 29.5 901
9028.65 36.64 35.70 480.000 21.91 6.77 26.2 29.3 902
9038.65 37.53 37.81 480.000 21.94 6.61 26.2 29.3 903
9048.65 37.72 38.68 480.000 22.02 6.00 26.1 29.3 904
9058.65 38.30 39.32 480.000 22.02 5.52 26.2 29.3 905
9068.65 39.31 39.73 480.000 22.05 5.52 26.3 29.3 906
9078.65 39.73 39.82 480.000 22.05 5.17 26.1 29.2 907
9088.65 41.16 40.11 480.000 22.03 5.08 26.1 29.4 908
9098.65 41.02 40.42 480.000 22.07 4.80 26.0 29.3 909
9108.65 41.19 40.20 480.000 22.09 5.05 26.3 29.3 910
9118.65 40.99 41.50 480.000 22.05 4.69 26.3 29.4 911
9128.90 41.24 41.27 480.000 22.07 4.60 26.0 29.4 912
9138.65 40.59 42.54 480.000 22.08 4.54 25.9 29.4 913
9148.65 41.38 41.96 480.000 22.10 4.39 26.2 29.2 914
9158.65 42.69 41.90 480.000 22.12 4.28 26.2 29.3 915
9168.65 42.34 40.84 480.000 22.12 4.49 26.2 29.4 916
9178.65 41.76 42.92 480.000 22.07 4.33 26.1 29.3 917
9188.65 41.74 42.53 480.000 22.08 4.44 26.1 29.3 918
9198.65 40.91 42.24 480.000 22.09 4.41 26.1 29.2 919
9208.65 43.18 42.14 480.000 22.10 4.12 26.3 29.5 920
9218.65 42.51 41.15 480.000 22.07 4.42 26.1 29.3 921
9228.65 42.02 42.92 480.000 22.08 4.19 26.2 29.2 922
9238.65 41.53 42.39 480.000 22.08 4.28 26.1 29.2 923
9248.65 42.42 42.16 480.000 22.11 4.13 26.2 29.3 924
9258.65 43.32 42.21 480.000 22.08 4.27 26.0 29.3 925
9268.65 42.72 41.16 480.000 22.08 4.38 26.2 29.3 926
9278.65 41.94 43.07 480.000 22.09 4.23 26.1 29.2 927
9288.65 41.76 42.65 480.000 22.10 4.09 26.2 29.3 928
9298.65 42.88 42.19 480.000 22.11 4.41 26.1 29.3 929
9308.65 42.69 41.66 480.000 22.09 4.33 26.1 29.4 930
9318.65 42.54 42.35 480.000 22.10 4.14 26.4 29.4 931
9328.65 41.73 43.17 480.000 22.09 4.22 26.1 29.4 932
9338.65 41.68 42.66 480.000 22.09 4.21 26.1 29.3 933
9348.65 43.08 41.99 480.000 22.11 4.04 26.0 29.2 934
9358.65 42.64 41.02 480.000 22.11 4.37 26.1 29.3 935
9368.65 41.78 43.23 480.000 22.11 4.22 26.2 29.3 936
9378.89 42.63 42.92 480.000 22.08 4.12 26.3 29.2 937
9388.65 43.02 42.85 480.000 22.10 4.22 26.1 29.2 938
9398.65 42.52 41.85 480.000 22.11 4.10 26.0 29.2 939
9408.65 42.28 41.77 480.000 22.10 4.07 26.2 29.1 940
9418.65 41.21 43.11 480.000 22.08 4.28 26.1 29.3 941
9428.65 43.12 42.66 480.000 22.06 4.37 26.2 29.3 942
9438.65 42.83 41.79 480.000 22.09 4.01 26.2 29.3 943
9448.65 42.63 42.44 480.000 22.10 4.29 26.1 29.2 944
9458.65 41.99 41.83 480.000 22.09 4.14 26.2 29.3 945
9468.65 41.09 42.91 480.000 22.10 4.17 26.0 29.3 946
9478.65 43.05 42.57 480.000 22.11 4.22 26.1 29.2 947
9488.65 42.62 41.53 480.000 22.06 4.03 26.2 29.2 948
9498.65 42.13 42.62 480.000 22.10 4.12 26.1 29.2 949
9508.65 42.19 42.05 480.000 22.12 4.15 26.0 29.2 950
9518.65 41.13 43.17 480.000 22.09 4.47 26.1 29.3 951
9528.65 42.93 42.39 480.000 22.10 4.24 26.2 29.1 952
9538.65 42.57 41.43 480.000 22.11 4.10 26.1 29.3 953
9548.65 42.15 41.88 480.000 22.09 4.09 26.2 29.3 954
9558.65 41.63 43.15 480.000 22.08 4.25 26.1 29.2 955
9568.65 42.55 42.67 480.000 22.08 4.10 26.2 29.3 956
9578.65 43.28 42.56 480.000 22.12 4.21 26.3 29.3 957
9588.65 42.73 41.32 480.000 22.11 4.08 26.5 29.1 958
9598.65 41.93 43.15 480.000 22.06 4.21 26.2 29.4 959
9608.65 41.76 42.56 480.000 22.08 4.14 26.4 29.4 960
9618.65 42.71 42.08 480.000 22.10 4.13 26.4 29.3 961
9628.89 42.57 41.41 480.000 22.06 4.09 26.1 29.4 962
9638.65 42.60 42.41 480.000 22.11 4.24 26.2 29.3 963
9648.65 41.77 43.29 480.000 22.09 4.10 26.2 29.3 964
9658.65 41.63 42.75 480.000 22.10 4.32 26.2 29.4 965
9668.65 43.14 42.24 480.000 22.11 4.35 26.1 29.2 966
9678.65 42.32 41.01 480.000 22.08 4.03 26.3 29.4 967
9688.65 41.75 43.22 480.000 22.08 4.20 26.2 29.4 968
9698.65 42.53 42.93 480.000 22.11 3.96 26.3 29.2 969
9708.65 41.69 42.55 480.000 22.08 4.39 26.0 29.3 970
9718.65 43.08 42.16 480.000 22.11 4.08 26.2 29.2 971
9728.65 42.62 41.08 480.000 22.12 4.24 26.1 29.2 972
9738.65 41.57 43.27 480.000 22.12 4.31 26.0 29.5 973
9748.65 42.40 42.63 480.000 22.10 4.01 26.1 29.2 974
9758.65 41.84 42.12 480.000 22.10 4.32 25.9 29.3 975
9768.65 43.03 41.96 480.000 22.12 3.93 26.3 29.3 976
9778.65 42.61 41.01 480.000 22.08 4.40 26.1 29.3 977
9788.65 41.57 43.26 480.000 22.08 4.32 26.1 29.3 978
9798.65 41.96 42.71 480.000 22.08 4.18 26.3 29.2 979
9808.65 43.19 41.91 480.000 22.08 4.28 26.3 29.2 980
9818.65 42.71 42.64 480.000 22.07 4.27 26.0 29.2 981
9828.65 42.56 41.96 480.000 22.09 4.41 26.2 29.3 982
9838.65 41.35 43.09 480.000 22.08 4.23 26.1 29.5 983
9848.65 43.16 42.67 480.000 22.09 4.33 26.1 29.4 984
9858.65 42.68 41.57 480.000 22.09 4.02 26.0 29.2 985
9868.65 42.21 41.95 480.000 22.10 4.24 26.2 29.2 986
9878.90 41.66 43.17 480.000 22.11 4.01 26.1 29.4 987
9888.65 42.37 42.66 480.000 22.13 4.07 26.1 29.3 988
9898.65 43.51 42.57 480.000 22.09 4.03 26.0 29.3 989
9908.65 42.76 41.29 480.000 22.08 4.08 26.0 29.3 990
9918.65 42.00 43.19 480.000 22.10 4.08 26.0 29.4 991
9928.65 41.77 42.71 480.000 22.07 4.30 26.0 29.3 992
9938.65 42.89 42.22 480.000 22.14 4.16 26.1 29.2 993
9948.65 42.49 41.49 480.000 22.12 4.20 26.1 29.3 994
9958.65 42.43 42.50 480.000 22.09 4.04 26.0 29.3 995
9968.65 41.79 43.03 480.000 22.09 4.24 26.0 29.3 996
9978.65 41.72 42.61 480.000 22.10 4.24 26.1 29.1 997
9988.65 43.09 42.17 480.000 22.09 4.19 26.0 29.2 998
9998.65 42.45 41.10 480.000 22.09 4.36 26.0 29.2 999
10008.65 41.65 43.19 480.000 22.10 4.29 26.0 29.3 1000
10018.65 42.49 42.79 480.000 22.12 4.24 26.3 29.3 1001
10028.65 41.66 42.43 480.000 22.11 4.17 26.1 29.5 1002
10038.65 43.04 42.11 480.000 22.11 4.11 26.0 29.4 1003
10048.65 42.59 41.06 480.000 22.10 4.26 26.0 29.4 1004
10058.65 41.56 43.29 480.000 22.06 4.19 26.1 29.2 1005
10068.65 42.62 42.73 480.000 22.08 4.28 26.1 29.3 1006
10078.65 42.00 42.00 480.000 22.08 4.39 26.2 29.7 1007
10088.65 43.27 42.65 480.000 22.08 4.30 26.0 29.3 1008
10098.65 42.61 41.77 480.000 22.11 4.01 26.0 29.3 1009
10108.65 41.35 43.11 480.000 22.06 4.39 26.0 29.1 1010
10118.65 43.17 42.66 480.000 22.10 4.25 26.0 29.3 1011
10128.89 42.69 41.58 480.000 22.12 4.12 26.2 29.2 1012
10138.65 42.19 42.65 480.000 22.09 4.17 26.0 29.3 1013
10148.65 42.21 42.07 480.000 22.07 4.23 26.2 29.3 1014
10158.65 41.12 43.18 480.000 22.07 4.32 26.1 29.3 1015
10168.65 43.29 42.59 480.000 22.10 4.24 26.2 29.2 1016
10178.65 42.71 41.33 480.000 22.14 3.92 26.1 29.3 1017
10188.65 41.92 43.19 480.000 22.07 4.24 26.0 29.2 1018
10198.65 42.66 42.70 480.000 22.10 4.25 26.0 29.2 1019
10208.65 41.89 42.19 480.000 22.07 4.23 26.1 29.4 1020
10218.65 43.14 42.22 480.000 22.10 4.43 26.1 29.2 1021
10228.65 42.66 41.11 480.000 22.10 4.04 25.9 29.2 1022
10238.65 41.59 43.28 480.000 22.05 4.32 26.0 29.2 1023
10248.65 41.98 42.75 480.000 22.10 3.96 26.1 29.4 1024
10258.65 43.14 41.75 480.000 22.07 4.35 26.0 29.3 1025
10268.65 42.78 42.88 480.000 22.06 4.28 26.1 29.7 1026
10278.65 42.60 42.03 480.000 22.09 4.29 26.1 29.3 1027
10288.65 41.36 43.17 480.000 22.08 4.22 26.1 29.3 1028
10298.65 43.20 42.69 480.000 22.09 4.11 26.0 29.2 1029
10308.65 42.68 41.56 480.000 22.09 4.29 26.0 29.3 1030
10318.65 42.21 41.94 480.000 22.08 4.25 26.1 29.3 1031
10328.65 41.66 43.16 480.000 22.07 4.23 26.1 29.4 1032
10338.65 42.55 42.66 480.000 22.13 3.97 26.0 29.1 1033
10348.65 43.27 42.56 480.000 22.08 4.06 26.0 29.5 1034
10358.65 42.73 41.33 480.000 22.07 4.24 26.1 29.3 1035
10368.65 41.93 43.15 480.000 22.11 4.18 26.0 29.4 1036
10378.89 41.77 42.71 480.000 22.10 4.36 26.0 29.3 1037
10388.65 43.09 42.23 480.000 22.10 4.12 26.1 29.2 1038
10398.65 42.82 41.67 480.000 22.09 4.23 26.0 29.2 1039
10408.65 42.63 42.57 480.000 22.09 4.18 26.1 29.5 1040
10418.65 41.56 43.31 480.000 22.13 4.07 26.1 29.1 1041
10428.65 41.95 42.77 480.000 22.09 4.21 26.2 29.3 1042
10438.65 43.15 41.90 480.000 22.09 4.24 26.1 29.0 1043
10448.65 42.57 41.80 480.000 22.09 4.13 26.1 29.2 1044
10458.65 41.71 43.10 480.000 22.10 4.04 26.1 29.4 1045
10468.65 42.70 42.82 480.000 22.06 4.21 26.0 29.3 1046
10478.65 43.13 42.66 480.000 22.10 4.41 26.1 29.2 1047
10488.65 42.69 41.57 480.000 22.08 4.20 26.1 29.4 1048
10498.65 42.23 43.11 480.000 22.08 3.99 26.0 29.3 1049
10508.65 41.14 42.56 560.000 21.77 10.45 26.5 29.4 1050
10518.65 43.91 42.42 560.000 21.66 10.34 26.4 29.4 1051
10528.65 43.39 43.87 560.000 21.76 9.76 26.2 29.2 1052
10538.65 44.47 43.75 560.000 21.94 9.49 26.2 29.3 1053
10548.65 45.25 44.90 560.000 21.83 8.65 26.2 29.3 1054
10558.65 43.76 46.02 560.000 21.81 8.24 26.1 29.3 1055
10568.65 47.03 44.99 560.000 21.88 8.07 26.2 29.2 1056
10578.65 47.38 46.36 560.000 21.93 7.76 26.2 29.3 1057
10588.65 47.15 47.96 560.000 21.90 7.59 26.1 29.3 1058
10598.65 45.49 47.75 560.000 21.89 7.36 26.0 29.2 1059
10608.65 48.01 47.70 560.000 21.92 7.30 26.1 29.3 1060
10618.65 49.13 45.98 560.000 21.92 7.01 26.1 29.5 1061
10628.90 48.73 48.00 560.000 21.96 7.02 26.3 29.2 1062
10638.65 48.57 49.13 560.000 21.96 6.85 26.0 29.2 1063
10648.65 48.46 49.17 560.000 21.96 6.78 26.0 29.2 1064
10658.65 48.43 48.74 560.000 21.96 6.85 26.2 29.3 1065
10668.65 46.70 48.99 560.000 21.93 6.70 26.0 29.3 1066
10678.65 48.29 48.68 560.000 21.98 6.69 26.0 29.6 1067
10688.65 49.26 48.79 560.000 21.98 6.56 26.4 29.3 1068
10698.65 49.63 46.77 560.000 21.95 6.73 26.0 29.3 1069
10708.65 49.40 48.14 560.000 21.89 6.56 26.3 29.3 1070
10718.65 49.09 49.18 560.000 21.94 6.59 26.1 29.2 1071
10728.65 49.39 49.66 560.000 21.94 6.66 26.1 29.5 1072
10738.65 48.88 49.89 560.000 21.94 6.34 26.2 29.3 1073
10748.65 49.07 49.52 560.000 21.94 6.59 26.0 29.4 1074
10758.65 49.05 49.27 560.000 22.02 6.46 25.9 29.2 1075
10768.65 48.24 49.12 560.000 21.97 6.27 26.1 29.2 1076
10778.65 48.58 49.18 560.000 21.94 6.39 26.0 29.3 1077
10788.65 48.26 48.96 560.000 21.97 6.67 26.1 29.3 1078
10798.65 49.27 49.09 560.000 21.98 6.62 25.9 29.5 1079
10808.65 49.60 48.20 560.000 21.98 6.55 26.1 29.2 1080
10818.65 49.92 48.51 560.000 21.97 6.42 26.1 29.3 1081
10828.65 49.67 48.40 560.000 21.92 6.46 25.9 29.4 1082
10838.65 49.43 49.14 560.000 21.99 6.36 26.4 29.2 1083
10848.65 49.05 49.65 560.000 21.99 6.33 26.1 29.4 1084
10858.65 49.12 49.87 560.000 21.97 6.47 26.0 29.3 1085
10868.65 49.19 49.72 560.000 21.98 6.54 26.0 29.2 1086
10878.90 49.07 49.62 560.000 21.96 6.45 26.0 29.3 1087
10888.65 49.23 49.30 560.000 22.01 6.47 25.9 29.2 1088
10898.65 49.07 49.15 560.000 21.99 6.34 26.1 29.3 1089
10908.65 47.05 49.04 560.000 21.94 6.55 26.0 29.3 1090
10918.65 48.35 49.04 560.000 21.96 6.59 26.0 29.3 1091
10928.65 49.29 49.14 560.000 21.95 6.48 25.9 29.2 1092
10938.65 49.71 49.16 560.000 22.01 6.43 25.9 29.4 1093
10948.65 49.87 48.32 560.000 21.95 6.31 25.9 29.3 1094
10958.65 49.99 47.37 560.000 21.95 6.47 26.0 29.3 1095
10968.65 49.36 48.90 560.000 21.96 6.45 25.9 29.3 1096
10978.65 49.28 49.54 560.000 21.96 6.43 26.0 29.3 1097
10988.65 48.95 49.82 560.000 21.96 6.41 26.0 29.3 1098
10998.65 49.15 49.96 560.000 21.98 6.36 26.1 29.3 1099
11008.65 49.20 49.55 560.000 21.94 6.42 26.1 29.4 1100
11018.65 49.02 49.35 560.000 21.95 6.59 26.1 29.2 1101
11028.65 48.31 49.10 560.000 21.98 6.44 25.9 29.1 1102
11038.65 47.60 49.20 560.000 21.96 6.43 26.1 29.3 1103
11048.65 48.70 49.18 560.000 21.97 6.52 26.1 29.3 1104
11058.65 49.43 49.20 560.000 21.95 6.29 26.1 29.4 1105
11068.65 49.78 48.95 560.000 21.96 6.44 26.0 29.4 1106
11078.65 49.88 47.08 560.000 21.97 6.44 26.0 29.6 1107
11088.65 49.50 48.26 560.000 21.96 6.55 26.0 29.4 1108
11098.65 49.36 49.25 560.000 21.97 6.54 26.1 29.5 1109
11108.65 49.27 49.70 560.000 21.96 6.46 26.2 29.7 1110
11118.65 49.28 49.91 560.000 21.98 6.57 26.0 29.3 1111
11128.90 49.23 49.98 560.000 21.97 6.51 26.0 29.3 1112
11138.65 49.07 49.40 560.000 21.93 6.50 25.9 29.3 1113
11148.65 48.88 49.28 560.000 21.95 6.46 26.0 29.2 1114
11158.65 47.04 49.25 560.000 21.94 6.47 26.0 29.5 1115
11168.65 48.24 49.22 560.000 21.93 6.46 26.1 29.3 1116
11178.65 49.25 48.95 560.000 21.96 6.65 26.0 29.4 1117
11188.65 49.69 49.14 560.000 21.97 6.47 26.1 29.4 1118
11198.65 49.88 48.19 560.000 21.98 6.47 25.9 29.2 1119
11208.65 49.94 47.53 560.000 21.99 6.49 26.0 29.4 1120
11218.65 49.52 48.67 560.000 21.88 6.42 26.1 29.2 1121
11228.65 49.36 49.44 560.000 21.99 6.66 26.1 29.3 1122
11238.65 49.28 49.78 560.000 21.95 6.41 26.2 29.4 1123
11248.65 49.09 49.93 560.000 21.99 6.43 26.1 29.3 1124
11258.65 49.27 49.75 560.000 21.93 6.29 26.0 29.2 1125
11268.65 48.89 49.53 560.000 21.91 6.39 25.9 29.2 1126
11278.65 49.10 49.38 560.000 21.98 6.52 25.9 29.2 1127
11288.65 47.90 48.99 560.000 21.94 6.40 26.0 29.2 1128
11298.65 47.80 49.15 560.000 21.99 6.40 25.9 29.3 1129
11308.65 48.87 49.19 560.000 21.98 6.25 26.0 29.6 1130
11318.65 49.52 49.12 560.000 21.90 6.33 26.0 29.3 1131
11328.65 49.77 48.25 560.000 21.96 6.46 26.0 29.5 1132
11338.65 49.95 48.55 560.000 21.96 6.48 26.0 29.2 1133
11348.65 49.68 48.42 560.000 22.01 6.37 26.1 29.3 1134
11358.65 49.44 49.15 560.000 21.99 6.14 26.0 29.3 1135
11368.65 49.06 49.65 560.000 21.91 6.35 25.9 29.3 1136
11378.90 49.15 49.87 560.000 21.93 6.50 26.0 29.4 1137
11388.65 49.09 49.41 560.000 22.00 6.38 26.0 29.3 1138
11398.65 49.08 49.79 560.000 22.01 6.38 26.1 29.3 1139
11408.65 49.26 49.41 560.000 21.98 6.21 25.9 29.3 1140
11418.65 49.09 49.20 560.000 21.95 6.42 26.0 29.2 1141
11428.65 46.99 48.93 560.000 21.93 6.53 26.1 29.2 1142
11438.65 48.42 49.08 560.000 21.95 6.52 26.2 29.3 1143
11448.65 49.31 49.18 560.000 21.96 6.51 26.0 29.2 1144
11458.65 49.70 49.19 560.000 21.99 6.47 26.2 29.3 1145
11468.65 49.87 48.36 560.000 21.93 6.33 25.9 29.4 1146
11478.65 49.98 47.63 560.000 21.94 6.35 25.9 29.4 1147
11488.65 49.50 48.68 560.000 21.95 6.49 26.1 29.4 1148
11498.65 49.22 49.47 560.000 21.95 6.46 26.0 29.4 1149
11508.65 49.22 49.78 560.000 21.98 6.49 26.2 29.3 1150
11518.65 48.96 49.93 560.000 21.98 6.53 26.0 29.3 1151
11528.65 49.09 49.52 560.000 21.94 6.58 26.0 29.2 1152
11538.65 49.18 49.37 560.000 21.97 6.54 26.0 29.3 1153
11548.65 49.20 49.29 560.000 21.95 6.49 26.2 29.7 1154
11558.65 47.04 49.04 560.000 21.98 6.47 26.0 29.4 1155
11568.65 48.43 49.14 560.000 21.94 6.48 26.0 29.5 1156
11578.65 49.33 49.18 560.000 21.96 6.44 26.1 29.4 1157
11588.65 49.73 49.20 560.000 21.98 6.54 26.1 29.3 1158
11598.65 49.88 46.94 560.000 21.93 6.52 25.9 29.3 1159
11608.65 49.79 48.18 560.000 22.00 6.42 26.0 29.3 1160
11618.65 49.46 49.25 560.000 21.92 6.34 25.9 29.4 1161
11628.90 49.08 49.69 560.000 21.92 6.49 26.0 29.3 1162
11638.65 49.14 49.89 560.000 21.95 6.52 26.3 29.5 1163
11648.65 49.19 49.99 560.000 21.97 6.47 25.8 29.1 1164
11658.65 49.03 49.56 560.000 21.97 6.42 26.0 29.3 1165
11668.65 49.19 49.38 560.000 21.96 6.33 26.0 29.3 1166
11678.65 48.34 49.10 560.000 21.96 6.46 26.2 29.3 1167
11688.65 47.62 49.14 560.000 21.96 6.64 25.9 29.2 1168
11698.65 48.71 49.19 560.000 21.97 6.33 25.9 29.3 1169
11708.65 49.44 48.94 560.000 22.00 6.45 26.0 29.4 1170
11718.65 49.78 49.08 560.000 21.94 6.43 26.0 29.3 1171
11728.65 49.88 47.13 560.000 21.98 6.47 26.0 29.3 1172
11738.65 49.55 48.31 560.000 21.94 6.49 25.9 29.4 1173
11748.65 49.36 49.26 560.000 21.98 6.54 26.0 29.4 1174
11758.65 49.21 49.45 560.000 21.98 6.44 25.9 29.3 1175
11768.65 49.27 50.04 560.000 21.98 6.38 26.1 29.3 1176
11778.65 49.10 50.06 560.000 21.93 6.39 26.0 29.3 1177
11788.65 49.14 49.58 560.000 21.99 6.47 26.0 29.3 1178
11798.65 49.20 49.22 560.000 21.93 6.48 26.1 29.4 1179
11808.65 48.33 49.14 560.000 21.95 6.26 26.0 29.3 1180
11818.65 48.64 49.24 560.000 21.96 6.30 26.1 29.4 1181
11828.65 48.28 48.95 560.000 21.93 6.43 25.9 29.4 1182
11838.65 49.24 49.09 560.000 21.92 6.52 25.9 29.3 1183
11848.65 49.69 49.15 560.000 21.98 6.35 26.1 29.4 1184
11858.65 49.89 47.70 560.000 21.97 6.34 26.0 29.2 1185
11868.65 49.67 48.06 560.000 21.99 6.34 26.0 29.4 1186
11878.90 49.42 48.99 560.000 21.97 6.38 26.1 29.5 1187
11888.65 49.44 49.28 560.000 21.95 6.42 26.0 29.2 1188
11898.65 49.21 50.02 560.000 21.94 6.53 25.8 29.3 1189
11908.65 48.95 50.04 560.000 21.98 6.28 26.1 29.2 1190
11918.65 49.11 49.50 560.000 22.00 6.41 26.1 29.3 1191
11928.65 49.17 49.35 560.000 21.95 6.32 25.9 29.3 1192
11938.65 48.90 49.27 560.000 21.94 6.45 26.0 29.4 1193
11948.65 47.07 49.22 560.000 21.95 6.43 26.0 29.2 1194
11958.65 48.28 49.07 560.000 21.99 6.34 25.9 29.3 1195
11968.65 49.24 49.14 560.000 22.01 6.33 26.1 29.3 1196
11978.65 49.68 49.18 560.000 21.95 6.35 25.8 29.4 1197
11988.65 49.86 48.16 560.000 21.97 6.53 26.0 29.3 1198
11998.65 49.96 47.54 560.000 21.98 6.52 25.9 29.3 1199
12008.65 49.45 48.59 640.000 21.60 13.17 26.5 29.4 1200
12018.65 49.43 49.50 640.000 21.62 13.61 26.3 29.3 1201
12028.65 50.04 49.81 640.000 21.62 12.87 26.5 29.2 1202
12038.65 50.54 50.24 640.000 21.64 12.05 26.5 29.4 1203
12048.65 50.49 54.22 640.000 21.67 11.55 26.2 29.3 1204
12058.65 52.32 53.21 640.000 21.71 11.41 26.3 29.3 1205
12068.65 54.26 53.17 640.000 21.80 10.70 26.3 29.3 1206
12078.65 53.70 53.21 640.000 21.78 10.56 26.3 29.3 1207
12088.65 52.28 54.68 640.000 21.68 10.25 26.3 29.2 1208
12098.65 55.69 54.12 640.000 21.73 10.19 26.2 29.2 1209
12108.65 54.89 52.20 640.000 21.73 10.03 26.2 29.3 1210
12118.65 52.61 56.05 640.000 21.77 9.93 26.2 29.3 1211
12128.90 56.19 55.28 640.000 21.72 9.66 26.2 29.4 1212
12138.65 55.34 52.73 640.000 21.76 9.63 26.2 29.2 1213
12148.65 52.95 56.32 640.000 21.77 9.60 26.3 29.3 1214
12158.65 56.80 55.63 640.000 21.78 9.64 26.2 29.5 1215
12168.65 55.27 54.99 640.000 21.84 9.61 26.1 29.5 1216
12178.65 56.46 56.57 640.000 21.79 9.31 26.2 29.3 1217
12188.65 55.50 54.85 640.000 21.83 9.44 26.1 29.2 1218
12198.65 54.79 56.26 640.000 21.80 9.40 26.1 29.5 1219
12208.65 56.50 54.19 640.000 21.79 9.36 26.1 29.2 1220
12218.65 53.84 56.29 640.000 21.81 9.20 26.2 29.3 1221
12228.65 56.73 55.94 640.000 21.76 9.40 26.1 29.3 1222
12238.65 55.79 53.35 640.000 21.79 9.32 26.0 29.3 1223
12248.65 54.98 56.78 640.000 21.80 9.30 26.3 29.5 1224
12258.65 56.03 55.51 640.000 21.84 9.37 26.2 29.4 1225
12268.65 55.26 57.09 640.000 21.83 9.35 26.2 29.3 1226
12278.65 55.85 55.42 640.000 21.85 9.53 26.0 29.2 1227
12288.65 54.55 56.94 640.000 21.80 9.29 26.2 29.4 1228
12298.65 57.22 55.67 640.000 21.78 9.31 26.2 29.1 1229
12308.65 55.45 55.04 640.000 21.77 9.28 26.2 29.5 1230
12318.65 54.80 56.05 640.000 21.80 9.20 26.1 29.4 1231
12328.65 56.51 54.66 640.000 21.75 9.33 26.1 29.3 1232
12338.65 54.32 55.19 640.000 21.79 9.24 26.1 29.4 1233
12348.65 56.95 56.38 640.000 21.82 9.37 26.1 29.3 1234
12358.65 55.73 55.42 640.000 21.80 9.23 26.2 29.3 1235
12368.65 55.48 56.47 640.000 21.88 9.44 26.0 29.4 1236
12378.90 56.47 54.80 640.000 21.86 9.25 26.3 29.2 1237
12388.65 55.41 56.56 640.000 21.83 9.44 26.1 29.3 1238
12398.65 56.83 54.36 640.000 21.79 9.21 26.0 29.5 1239
12408.65 53.96 56.72 640.000 21.79 9.41 26.1 29.3 1240
12418.65 57.41 55.81 640.000 21.80 9.30 26.1 29.2 1241
12428.65 55.55 53.30 640.000 21.76 9.18 26.0 29.3 1242
12438.65 54.85 57.42 640.000 21.76 9.38 26.0 29.3 1243
12448.65 56.61 55.38 640.000 21.83 9.40 26.2 29.3 1244
12458.65 55.09 55.99 640.000 21.75 9.37 26.1 29.3 1245
12468.65 56.12 54.82 640.000 21.78 9.31 26.1 29.3 1246
12478.65 54.59 57.20 640.000 21.81 9.44 26.1 29.4 1247
12488.65 56.51 55.55 640.000 21.79 9.13 26.1 29.3 1248
12498.65 54.88 54.84 640.000 21.76 9.29 26.0 29.3 1249
12508.65 54.82 56.77 640.000 21.82 9.32 26.0 29.4 1250
12518.65 56.78 54.27 640.000 21.79 9.20 26.0 29.3 1251
12528.65 53.94 56.70 640.000 21.79 9.18 26.0 29.5 1252
12538.65 57.47 55.80 640.000 21.76 9.34 26.0 29.4 1253
12548.65 55.54 55.51 640.000 21.79 9.43 26.1 29.6 1254
12558.65 56.92 56.48 640.000 21.76 9.17 26.1 29.3 1255
12568.65 55.72 55.57 640.000 21.77 9.04 26.3 29.4 1256
12578.65 56.93 56.56 640.000 21.83 9.42 26.0 29.2 1257
12588.65 55.72 53.82 640.000 21.81 9.30 26.1 29.2 1258
12598.65 53.24 57.40 640.000 21.77 9.21 26.0 29.2 1259
12608.65 57.37 55.58 640.000 21.82 9.32 26.0 29.5 1260
12618.65 55.25 55.20 640.000 21.80 9.14 26.2 29.4 1261
12628.90 56.65 56.39 640.000 21.79 9.27 26.2 29.3 1262
12638.65 55.68 55.99 640.000 21.77 9.21 26.1 29.3 1263
12648.65 55.16 56.10 640.000 21.81 9.28 26.1 29.2 1264
12658.65 56.68 54.36 640.000 21.75 9.21 26.1 29.3 1265
12668.65 54.79 57.44 640.000 21.81 9.22 26.1 29.3 1266
12678.65 56.49 55.23 640.000 21.81 9.21 26.3 29.5 1267
12688.65 54.31 56.70 640.000 21.78 9.30 26.1 29.4 1268
12698.65 56.90 55.59 640.000 21.79 9.29 26.1 29.3 1269
12708.65 55.93 53.38 640.000 21.79 9.31 26.1 29.3 1270
12718.65 53.13 57.24 640.000 21.80 9.19 26.0 29.3 1271
12728.65 57.36 55.70 640.000 21.81 9.23 26.1 29.4 1272
12738.65 55.69 56.86 640.000 21.78 9.09 26.1 29.2 1273
12748.65 56.40 55.35 640.000 21.80 9.28 26.1 29.3 1274
12758.65 54.47 56.78 640.000 21.76 9.35 26.1 29.5 1275
12768.65 57.14 55.93 640.000 21.84 9.30 26.0 29.3 1276
12778.65 55.71 54.99 640.000 21.81 9.15 26.1 29.5 1277
12788.65 55.27 56.38 640.000 21.79 9.38 26.0 29.4 1278
12798.65 56.73 54.48 640.000 21.79 9.19 26.1 29.3 1279
12808.65 53.94 56.40 640.000 21.80 9.44 26.0 29.3 1280
12818.65 56.77 55.98 640.000 21.81 9.29 26.0 29.5 1281
12828.65 55.80 55.21 640.000 21.83 9.43 26.1 29.4 1282
12838.65 57.06 56.69 640.000 21.81 9.14 26.1 29.3 1283
12848.65 55.63 55.09 640.000 21.84 9.24 26.0 29.2 1284
12858.65 56.33 56.73 640.000 21.79 9.38 26.1 29.4 1285
12868.65 56.01 53.86 640.000 21.78 9.37 26.1 29.4 1286
12878.90 53.37 57.17 640.000 21.82 9.34 26.1 29.3 1287
12888.65 57.43 55.69 640.000 21.78 9.24 26.1 29.6 1288
12898.65 55.30 54.87 640.000 21.80 9.26 26.0 29.4 1289
12908.65 56.26 56.54 640.000 21.84 9.44 26.2 29.3 1290
12918.69 55.80 55.15 640.000 21.81 9.24 26.1 29.5 1291
12928.65 55.36 56.33 640.000 21.81 9.45 26.1 29.4 1292
12938.65 56.39 54.50 640.000 21.81 9.15 26.3 29.2 1293
12948.65 54.89 57.45 640.000 21.81 9.17 26.1 29.4 1294
12958.65 56.52 55.23 640.000 21.79 9.10 26.0 29.2 1295
12968.65 54.31 55.44 640.000 21.77 9.30 26.1 29.4 1296
12978.65 56.76 56.71 640.000 21.82 9.32 26.0 29.3 1297
12988.65 55.77 53.70 640.000 21.81 9.30 26.0 29.4 1298
12998.65 53.29 57.41 640.000 21.76 9.23 26.1 29.4 1299
13008.65 57.42 55.54 640.000 21.81 9.17 25.9 29.5 1300
13018.65 55.26 56.98 640.000 21.80 9.41 26.0 29.3 1301
13028.65 57.38 55.61 640.000 21.82 9.26 26.0 29.3 1302
13038.65 55.24 56.74 640.000 21.81 9.15 26.0 29.2 1303
13048.65 57.37 55.80 640.000 21.85 9.32 26.1 29.5 1304
13058.65 55.50 53.28 640.000 21.80 9.38 26.1 29.4 1305
13068.65 54.87 57.48 640.000 21.82 9.35 26.1 29.4 1306
13078.65 56.54 55.24 640.000 21.84 9.34 26.0 29.4 1307
13088.65 54.31 55.41 640.000 21.79 9.22 26.0 29.4 1308
13098.65 56.99 56.52 640.000 21.81 9.42 26.1 29.3 1309
13108.65 55.69 55.48 640.000 21.76 9.01 26.0 29.4 1310
13118.65 55.50 56.48 640.000 21.81 9.47 26.2 29.3 1311
13128.90 56.50 54.79 640.000 21.78 9.35 26.1 29.3 1312
13138.65 55.45 56.59 640.000 21.75 9.52 26.0 29.3 1313
13148.65 56.84 54.37 640.000 21.81 9.12 26.1 29.4 1314
13158.65 53.96 56.70 640.000 21.75 9.30 26.0 29.3 1315
13168.65 57.42 55.82 640.000 21.82 9.33 26.0 29.3 1316
13178.65 55.54 53.29 640.000 21.79 9.23 26.1 29.6 1317
13188.65 54.90 57.44 640.000 21.80 9.30 26.0 29.5 1318
13198.65 56.57 55.25 640.000 21.79 9.32 26.1 29.4 1319
13208.65 55.19 57.37 640.000 21.76 9.34 26.0 29.3 1320
13218.65 56.15 55.31 640.000 21.80 9.31 26.0 29.4 1321
13228.65 54.64 57.17 640.000 21.78 9.47 26.0 29.3 1322
13238.65 57.43 55.68 640.000 21.81 9.29 26.1 29.2 1323
13248.65 55.28 54.86 640.000 21.78 9.27 26.1 29.3 1324
13258.65 54.98 56.45 640.000 21.78 9.41 26.1 29.3 1325
13268.65 56.85 54.42 640.000 21.84 9.37 26.2 29.3 1326
13278.65 53.99 56.40 640.000 21.81 9.24 26.2 29.2 1327
13288.65 56.81 56.00 640.000 21.77 9.29 26.1 29.3 1328
13298.65 55.81 55.19 640.000 21.83 9.32 26.1 29.4 1329
13308.65 57.03 56.64 640.000 21.76 9.31 26.0 29.4 1330
13318.65 55.60 55.10 640.000 21.79 9.19 26.1 29.6 1331
13328.65 56.36 56.74 640.000 21.79 9.20 26.1 29.3 1332
13338.65 55.96 53.85 640.000 21.84 9.36 26.0 29.3 1333
13348.65 53.36 57.14 640.000 21.80 9.43 26.2 29.4 1334
13358.65 56.79 55.71 640.000 21.81 9.33 26.0 29.3 1335
13368.65 55.52 54.91 640.000 21.83 9.36 26.1 29.3 1336
13378.90 55.19 56.36 640.000 21.80 9.20 26.0 29.4 1337
13388.65 56.55 55.52 640.000 21.77 9.33 26.1 29.4 1338
13398.65 55.29 56.42 640.000 21.81 9.25 26.1 29.3 1339
13408.65 56.44 54.59 640.000 21.78 9.34 26.1 29.3 1340
13418.65 54.97 56.78 640.000 21.77 9.27 26.1 29.4 1341
13428.65 56.01 55.51 640.000 21.79 9.45 26.0 29.4 1342
13438.65 54.62 54.90 640.000 21.83 9.30 26.0 29.2 1343
13448.65 56.44 56.37 640.000 21.81 9.29 25.8 29.3 1344
13458.65 55.42 54.23 640.000 21.82 9.35 26.0 29.5 1345
13468.65 53.36 56.95 640.000 21.79 9.29 26.2 29.4 1346
13478.65 57.19 55.67 640.000 21.82 9.46 26.0 29.4 1347
13488.65 55.70 56.78 640.000 21.77 9.41 26.1 29.5 1348
13498.65 56.82 55.59 640.000 21.82 9.17 26.0 29.3 1349
13508.65 55.47 56.41 720.000 21.39 15.83 26.8 29.4 1350
13518.65 56.96 56.14 720.000 21.36 16.25 26.8 29.6 1351
13528.65 56.15 55.25 720.000 21.49 15.58 26.5 29.4 1352
13538.65 57.72 57.83 720.000 21.42 15.01 26.5 29.4 1353
13548.65 56.56 56.56 720.000 21.50 14.55 26.5 29.7 1354
13558.65 59.04 58.74 720.000 21.48 14.29 26.5 29.3 1355
13568.65 58.47 58.59 720.000 21.48 13.55 26.5 29.5 1356
13578.65 60.33 60.77 720.000 21.59 13.48 26.3 29.3 1357
13588.65 57.91 59.09 720.000 21.58 13.55 26.3 29.3 1358
13598.65 61.11 59.36 720.000 21.55 13.07 26.3 29.3 1359
13608.65 59.29 61.00 720.000 21.52 13.10 26.3 29.2 1360
13618.65 60.02 61.78 720.000 21.57 13.30 26.3 29.5 1361
13628.91 59.60 61.80 720.000 21.51 12.79 26.3 29.3 1362
13638.65 59.61 59.60 720.000 21.63 12.73 26.3 29.5 1363
13648.65 62.63 59.93 720.000 21.60 12.90 26.3 29.3 1364
13658.65 61.12 61.81 720.000 21.55 12.59 26.4 29.3 1365
13668.65 60.13 60.36 720.000 21.59 12.80 26.2 29.4 1366
13678.65 61.47 62.17 720.000 21.65 12.44 26.3 29.3 1367
13688.65 60.29 61.64 720.000 21.60 12.42 26.4 29.1 1368
13698.65 60.60 60.37 720.000 21.62 12.53 26.3 29.3 1369
13708.65 61.82 60.52 720.000 21.55 12.16 26.2 29.4 1370
13718.65 62.01 59.72 720.000 21.59 12.05 26.3 29.4 1371
13728.65 62.64 60.32 720.000 21.68 12.19 26.3 29.3 1372
13738.65 61.40 62.20 720.000 21.61 12.41 26.3 29.3 1373
13748.65 58.76 61.67 720.000 21.59 12.15 26.3 29.6 1374
13758.65 61.79 60.53 720.000 21.60 12.15 26.5 29.4 1375
13768.65 60.40 62.07 720.000 21.58 12.14 26.2 29.3 1376
13778.65 60.61 60.28 720.000 21.65 12.42 26.5 29.3 1377
13788.65 62.27 60.64 720.000 21.57 12.14 26.4 29.3 1378
13798.65 61.76 62.36 720.000 21.61 12.32 26.2 29.4 1379
13808.65 60.63 61.89 720.000 21.56 12.26 26.3 29.5 1380
13818.86 62.12 62.64 720.000 21.59 12.42 26.2 29.4 1381
13828.65 60.40 62.06 720.000 21.65 12.48 26.3 29.3 1382
13838.65 60.63 60.53 720.000 21.63 12.57 26.3 29.4 1383
13848.65 62.31 60.91 720.000 21.65 12.31 26.2 29.8 1384
13858.65 61.84 60.21 720.000 21.64 12.36 26.3 29.3 1385
13868.65 62.90 59.53 720.000 21.62 11.90 26.4 29.4 1386
13878.91 61.70 62.97 720.000 21.66 12.24 26.3 29.3 1387
13888.65 60.70 62.25 720.000 21.59 12.09 26.2 29.5 1388
13898.65 60.92 62.39 720.000 21.63 12.33 26.2 29.4 1389
13908.65 59.88 62.19 720.000 21.63 12.36 26.2 29.3 1390
13918.65 59.68 60.01 720.000 21.69 12.55 26.2 29.3 1391
13928.65 62.74 59.86 720.000 21.62 12.45 26.2 29.4 1392
13938.65 61.83 61.93 720.000 21.68 12.50 26.3 29.5 1393
13948.65 62.59 60.15 720.000 21.61 11.94 26.4 29.3 1394
13958.65 62.19 60.89 720.000 21.58 12.04 26.2 29.4 1395
13968.65 59.99 62.14 720.000 21.62 12.21 26.3 29.3 1396
13978.65 59.78 60.01 720.000 21.61 12.26 26.3 29.4 1397
13988.65 62.07 60.73 720.000 21.57 12.33 26.2 29.3 1398
13998.65 60.41 61.99 720.000 21.71 12.40 26.2 29.5 1399
14008.65 60.65 60.30 720.000 21.62 12.57 26.4 29.3 1400
14018.65 62.72 61.32 720.000 21.66 12.07 26.2 29.2 1401
14028.65 60.03 62.32 720.000 21.61 11.97 26.3 29.3 1402
14038.65 61.17 62.10 720.000 21.64 11.87 26.4 29.3 1403
14048.65 62.42 62.97 720.000 21.63 12.41 26.3 29.4 1404
14058.65 60.16 62.20 720.000 21.66 12.46 26.1 29.4 1405
14068.65 60.87 60.56 720.000 21.73 12.67 26.3 29.4 1406
14078.65 62.38 60.94 720.000 21.68 12.17 26.3 29.4 1407
14088.65 61.93 60.25 720.000 21.67 12.10 26.3 29.3 1408
14098.65 62.93 59.52 720.000 21.59 11.91 26.2 29.5 1409
14108.65 62.16 62.98 720.000 21.63 12.15 26.2 29.3 1410
14118.65 60.22 62.18 720.000 21.65 12.18 26.3 29.4 1411
14128.90 61.01 62.67 720.000 21.72 12.37 26.2 29.3 1412
14138.65 61.87 62.94 720.000 21.60 12.12 26.3 29.3 1413
14148.65 58.61 60.51 720.000 21.62 12.36 26.3 29.5 1414
14158.65 62.49 59.61 720.000 21.65 12.16 26.2 29.3 1415
14168.65 62.19 62.05 720.000 21.69 12.06 26.2 29.4 1416
14178.65 62.54 60.62 720.000 21.58 12.39 26.2 29.4 1417
14188.65 62.29 60.76 720.000 21.59 11.93 26.3 29.3 1418
14198.65 60.27 62.39 720.000 21.63 12.38 26.3 29.3 1419
14208.65 59.51 60.26 720.000 21.66 12.53 26.2 29.2 1420
14218.65 62.37 60.99 720.000 21.60 12.43 26.2 29.3 1421
14228.65 60.62 62.26 720.000 21.59 12.00 26.3 29.2 1422
14238.65 60.74 60.68 720.000 21.66 12.19 26.2 29.4 1423
14248.65 62.29 60.76 720.000 21.64 12.11 26.5 29.4 1424
14258.65 61.74 62.41 720.000 21.61 12.22 26.2 29.3 1425
14268.65 60.58 61.95 720.000 21.62 12.34 26.3 29.4 1426
14278.65 62.08 62.59 720.000 21.66 12.57 26.4 29.4 1427
14288.65 60.35 62.03 720.000 21.69 12.28 26.2 29.2 1428
14298.65 60.61 60.52 720.000 21.65 12.25 26.1 29.3 1429
14308.65 61.95 60.94 720.000 21.62 12.00 26.2 29.3 1430
14318.65 60.41 60.24 720.000 21.59 12.36 26.3 29.2 1431
14328.65 62.09 59.89 720.000 21.58 12.47 26.3 29.3 1432
14338.65 62.05 62.58 720.000 21.63 12.24 26.2 29.3 1433
14348.65 60.43 62.26 720.000 21.70 12.47 26.2 29.2 1434
14358.65 60.80 62.58 720.000 21.59 12.12 26.2 29.3 1435
14368.65 61.74 62.34 720.000 21.66 12.01 26.3 29.3 1436
14378.90 58.88 61.69 720.000 21.57 12.06 26.2 29.2 1437
14388.65 62.09 58.88 720.000 21.57 12.37 26.1 29.3 1438
14398.65 62.09 61.87 720.000 21.63 12.47 26.3 29.4 1439
14408.65 62.75 60.16 720.000 21.64 12.20 26.2 29.2 1440
14418.65 62.23 60.58 720.000 21.63 12.06 26.2 29.3 1441
14428.65 61.74 62.81 720.000 21.59 11.93 26.2 29.2 1442
14438.65 58.86 61.54 720.000 21.63 12.18 26.2 29.2 1443
14448.65 61.64 60.95 720.000 21.60 12.29 26.4 29.4 1444
14458.65 60.11 62.33 720.000 21.67 12.54 26.1 29.3 1445
14468.65 60.48 60.44 720.000 21.69 12.13 26.3 29.3 1446
14478.65 63.02 60.31 720.000 21.65 12.08 26.1 29.4 1447
14488.65 62.01 62.04 720.000 21.63 11.89 26.3 29.5 1448
14498.65 62.06 60.61 720.000 21.61 12.55 26.2 29.3 1449
14508.65 61.73 60.69 720.000 21.71 12.41 26.3 29.3 1450
14518.65 60.38 62.04 720.000 21.67 12.29 26.3 29.3 1451
14528.65 59.89 60.28 720.000 21.63 12.22 26.2 29.1 1452
14538.65 62.30 60.82 720.000 21.56 11.98 26.2 29.2 1453
14548.65 60.56 61.96 720.000 21.57 12.36 26.2 29.3 1454
14558.65 60.69 60.45 720.000 21.62 12.62 26.1 29.2 1455
14568.65 61.88 60.77 720.000 21.66 12.28 26.3 29.3 1456
14578.65 60.29 61.91 720.000 21.66 12.34 26.2 29.0 1457
14588.65 60.78 61.96 720.000 21.62 12.00 26.2 29.2 1458
14598.65 61.92 62.82 720.000 21.60 12.19 26.3 29.4 1459
14608.65 60.53 62.35 720.000 21.59 12.23 26.4 29.2 1460
14618.65 61.08 60.28 720.000 21.60 12.42 26.2 29.2 1461
14628.90 62.20 60.68 720.000 21.58 12.32 26.2 28.9 1462
14638.65 62.41 61.54 720.000 21.66 12.41 26.2 29.2 1463
14648.65 63.13 58.84 720.000 21.62 11.86 26.2 29.2 1464
14658.65 62.51 62.68 720.000 21.63 12.22 26.2 29.2 1465
14668.65 60.19 62.02 720.000 21.57 11.98 26.1 29.5 1466
14678.65 60.97 62.37 720.000 21.65 12.40 26.2 29.5 1467
14688.65 60.31 62.45 720.000 21.62 12.36 26.2 29.2 1468
14698.65 59.54 60.32 720.000 21.68 12.41 26.3 29.2 1469
14708.65 62.91 59.52 720.000 21.66 12.11 26.2 29.2 1470
14718.65 62.39 62.04 720.000 21.59 11.84 26.1 29.3 1471
14728.65 62.61 60.63 720.000 21.63 11.98 26.2 29.3 1472
14738.65 62.33 60.75 720.000 21.61 12.52 26.2 29.3 1473
14748.65 60.19 62.33 720.000 21.64 12.49 26.2 29.3 1474
14758.65 59.37 60.26 720.000 21.60 12.20 26.1 29.2 1475
14768.65 62.49 61.25 720.000 21.66 12.12 26.3 29.4 1476
14778.65 60.58 62.04 720.000 21.65 12.10 26.3 29.5 1477
14788.65 60.69 60.48 720.000 21.54 12.11 26.2 29.4 1478
14798.65 62.32 60.73 720.000 21.59 12.11 26.2 29.3 1479
14808.65 60.26 62.36 720.000 21.58 12.21 26.3 29.3 1480
14818.65 60.97 61.47 720.000 21.63 12.10 26.1 29.3 1481
14828.65 62.42 61.48 720.000 21.66 12.41 26.3 29.2 1482
14838.65 60.52 61.48 720.000 21.66 12.57 26.3 29.2 1483
14848.65 60.68 60.27 720.000 21.61 12.48 26.3 29.3 1484
14858.65 62.30 60.46 720.000 21.66 12.29 26.2 29.2 1485
14868.65 61.86 60.30 720.000 21.62 12.04 26.2 29.2 1486
14878.91 62.94 59.58 720.000 21.61 11.87 26.2 29.4 1487
14888.65 62.15 62.98 720.000 21.61 12.20 26.1 29.5 1488
14898.65 60.22 62.19 720.000 21.63 12.09 26.2 29.2 1489
14908.65 60.59 62.42 720.000 21.59 12.33 26.2 29.1 1490
14918.65 59.98 62.17 720.000 21.63 12.54 26.2 29.3 1491
14928.65 59.74 59.99 720.000 21.61 12.51 26.2 29.3 1492
14938.65 63.00 59.76 720.000 21.66 12.51 26.2 29.4 1493
14948.65 61.71 62.27 720.000 21.74 12.70 26.4 29.3 1494
14958.65 62.06 60.51 720.000 21.67 12.29 26.1 29.4 1495
14968.65 61.83 60.74 720.000 21.66 12.07 26.3 29.2 1496
14978.65 60.21 61.82 720.000 21.62 12.34 26.2 29.3 1497
14988.65 59.90 60.28 720.000 21.60 12.08 26.1 29.0 1498
14998.65 62.44 60.92 720.000 21.65 12.56 26.3 29.3 1499
15008.65 60.55 61.74 800.000 21.16 19.91 26.7 29.0 1500
15018.65 61.10 60.58 800.000 21.13 19.64 26.9 29.2 1501
15028.65 63.02 61.10 800.000 21.19 19.44 26.9 29.2 1502
15038.65 62.98 63.30 800.000 21.29 18.85 26.7 29.1 1503
15048.65 62.95 63.93 800.000 21.24 18.31 26.6 29.4 1504
15058.65 62.45 62.50 800.000 21.38 18.42 26.5 29.1 1505
15068.65 64.41 63.66 800.000 21.32 17.48 26.6 29.2 1506
15078.65 65.06 63.86 800.000 21.29 16.75 26.6 29.3 1507
15088.65 65.46 65.73 800.000 21.38 17.36 26.5 29.2 1508
15098.65 65.07 65.68 800.000 21.39 16.53 26.4 29.3 1509
15108.65 65.21 65.74 800.000 21.51 17.25 26.7 29.3 1510
15118.65 63.84 65.59 800.000 21.56 16.73 26.5 29.0 1511
15128.90 64.65 65.46 800.000 21.39 16.62 26.5 29.4 1512
15138.65 66.21 65.21 800.000 21.34 16.44 26.6 29.4 1513
15148.65 65.81 65.82 800.000 21.43 17.29 26.6 29.3 1514
15158.65 63.79 64.09 800.000 21.38 16.69 26.6 29.4 1515
15168.65 64.99 64.74 800.000 21.37 16.47 26.5 29.4 1516
15178.65 66.22 65.84 800.000 21.52 16.77 26.6 29.3 1517
15188.65 66.25 65.84 800.000 21.41 15.86 26.6 29.3 1518
15198.65 66.23 66.40 800.000 21.51 16.24 26.5 29.2 1519
15208.65 66.09 64.95 800.000 21.34 15.70 26.5 29.2 1520
15218.65 66.28 66.01 800.000 21.40 16.58 26.5 29.3 1521
15228.65 66.54 66.12 800.000 21.41 16.51 26.6 29.3 1522
15238.65 65.62 66.08 800.000 21.58 16.43 26.4 29.3 1523
15248.65 66.23 66.59 800.000 21.36 15.43 26.6 29.1 1524
15258.65 65.94 65.63 800.000 21.40 16.16 26.5 29.1 1525
15268.65 65.81 66.72 800.000 21.41 16.67 26.7 29.2 1526
15278.65 64.05 65.93 800.000 21.52 16.57 26.3 29.1 1527
15288.65 65.58 66.11 800.000 21.47 16.08 26.4 29.4 1528
15298.65 65.39 65.75 800.000 21.37 15.42 26.3 29.3 1529
15308.65 66.20 66.07 800.000 21.44 16.97 26.6 29.2 1530
15318.65 66.03 65.65 800.000 21.42 16.35 26.5 29.2 1531
15328.65 66.35 66.23 800.000 21.39 15.71 26.3 29.1 1532
15338.65 65.01 65.34 800.000 21.29 16.32 26.5 29.3 1533
15348.65 65.77 65.69 800.000 21.45 16.55 26.5 29.1 1534
15358.65 66.30 66.22 800.000 21.48 15.97 26.4 29.2 1535
15368.65 66.09 66.03 800.000 21.41 15.67 26.4 29.2 1536
15378.90 66.57 66.47 800.000 21.42 16.67 26.5 29.2 1537
15388.65 66.33 64.06 800.000 21.48 16.38 26.5 29.2 1538
15398.65 66.46 65.97 800.000 21.24 15.15 26.5 29.1 1539
15408.65 66.40 66.32 800.000 21.49 16.79 26.7 29.1 1540
15418.65 66.56 66.54 800.000 21.40 16.14 26.5 29.2 1541
15428.65 66.12 66.48 800.000 21.32 15.42 26.7 29.1 1542
15438.65 65.76 66.36 800.000 21.41 16.70 26.5 29.2 1543
15448.65 66.32 66.26 800.000 21.54 16.35 26.5 29.5 1544
15458.65 66.09 66.16 800.000 21.43 15.00 26.4 29.2 1545
15468.65 65.61 66.39 800.000 21.49 16.02 26.5 29.2 1546
15478.65 64.61 65.92 800.000 21.44 16.03 26.5 29.3 1547
15488.65 65.32 66.09 800.000 21.39 15.89 26.5 29.2 1548
15498.65 66.13 66.31 800.000 21.36 16.34 26.7 29.3 1549
15508.65 65.68 65.97 800.000 21.37 16.25 26.5 29.3 1550
15518.65 66.64 66.21 800.000 21.46 16.07 26.5 29.1 1551
15528.65 66.46 64.11 800.000 21.34 15.43 26.2 29.3 1552
15538.65 64.10 65.60 800.000 21.37 16.54 26.5 29.2 1553
15548.65 65.08 65.37 800.000 21.47 16.18 26.5 29.3 1554
15558.65 66.29 65.98 800.000 21.28 15.06 26.4 29.4 1555
15568.65 66.28 66.41 800.000 21.35 15.87 26.6 29.2 1556
15578.65 66.58 66.22 800.000 21.47 16.51 26.6 29.2 1557
15588.65 66.48 66.58 800.000 21.47 15.72 26.4 29.0 1558
15598.65 66.38 65.04 800.000 21.29 15.33 26.5 29.2 1559
15608.65 66.62 66.01 800.000 21.35 15.95 26.6 29.1 1560
15618.65 66.02 66.04 800.000 21.58 16.67 26.5 29.2 1561
15628.91 66.33 66.59 800.000 21.43 15.06 26.6 29.2 1562
15638.65 65.76 66.34 800.000 21.28 15.57 26.6 29.1 1563
15648.65 65.98 66.44 800.000 21.37 16.62 26.4 29.2 1564
15658.65 65.53 66.34 800.000 21.53 16.16 26.6 29.1 1565
15668.65 66.22 66.59 800.000 21.38 15.43 26.4 29.2 1566
15678.65 64.28 66.13 800.000 21.32 15.97 26.4 29.4 1567
15688.65 65.44 65.79 800.000 21.51 16.84 26.5 29.2 1568
15698.65 66.20 66.02 800.000 21.47 15.84 26.4 29.2 1569
15708.65 66.01 65.73 800.000 21.34 15.66 26.6 29.1 1570
15718.65 66.36 66.27 800.000 21.43 16.93 26.5 29.1 1571
15728.65 64.01 64.29 800.000 21.43 16.20 26.7 29.2 1572
15738.65 65.57 65.27 800.000 21.34 15.74 26.4 29.3 1573
15748.65 66.08 66.30 800.000 21.39 16.22 26.7 29.3 1574
15758.65 66.57 65.80 800.000 21.41 15.88 26.6 29.1 1575
15768.65 66.34 66.18 800.000 21.52 15.96 26.4 29.3 1576
15778.65 66.16 66.58 800.000 21.35 15.60 26.4 29.2 1577
15788.65 66.57 65.57 800.000 21.53 16.65 26.6 29.2 1578
15798.65 66.43 65.72 800.000 21.49 15.79 26.5 29.1 1579
15808.65 66.44 66.43 800.000 21.31 15.52 26.5 29.3 1580
15818.65 65.82 66.37 800.000 21.48 16.90 26.5 29.3 1581
15828.65 66.38 66.61 800.000 21.40 16.14 26.5 29.5 1582
15838.65 66.08 66.51 800.000 21.39 15.17 26.5 29.3 1583
15848.65 65.68 66.33 800.000 21.52 16.86 26.6 29.2 1584
15858.65 66.33 66.56 800.000 21.52 16.17 26.6 29.2 1585
15868.65 66.11 66.01 800.000 21.39 15.05 26.4 29.2 1586
15878.91 64.64 66.31 800.000 21.33 16.37 26.5 29.3 1587
15888.65 65.34 65.73 800.000 21.42 16.27 26.5 29.5 1588
15898.65 65.80 65.99 800.000 21.45 16.24 26.4 29.2 1589
15908.65 66.25 66.14 800.000 21.33 15.96 26.6 29.1 1590
15918.82 66.05 65.71 800.000 21.44 16.27 26.4 29.2 1591
15928.65 66.45 65.95 800.000 21.50 16.15 26.4 29.2 1592
15938.65 65.01 64.94 800.000 21.29 15.25 26.6 29.3 1593
15948.65 65.76 65.96 800.000 21.44 16.99 26.5 29.1 1594
15958.65 66.33 65.87 800.000 21.49 16.12 26.5 29.1 1595
15968.65 66.09 66.11 800.000 21.30 15.69 26.7 29.2 1596
15978.65 66.58 66.47 800.000 21.42 16.56 26.5 29.1 1597
15988.65 66.29 64.10 800.000 21.45 16.23 26.6 29.2 1598
15998.65 65.59 65.96 800.000 21.32 14.99 26.5 29.2 1599
16008.65 66.64 66.07 800.000 21.38 16.11 26.4 29.2 1600
16018.65 66.62 66.43 800.000 21.45 16.28 26.4 28.9 1601
16028.65 66.16 66.48 800.000 21.41 15.28 26.7 29.4 1602
16038.65 65.80 66.36 800.000 21.33 16.27 26.5 29.1 1603
16048.65 65.55 66.27 800.000 21.45 16.44 26.5 29.3 1604
16058.65 65.94 66.15 800.000 21.50 16.14 26.4 29.5 1605
16068.65 66.30 66.57 800.000 21.37 15.59 26.5 29.3 1606
16078.65 64.33 65.84 800.000 21.41 16.27 26.5 29.3 1607
16088.65 65.58 65.98 800.000 21.46 16.30 26.5 29.2 1608
16098.65 66.15 65.97 800.000 21.31 14.95 26.5 29.2 1609
16108.65 66.04 65.95 800.000 21.39 15.91 26.5 29.2 1610
16118.65 65.98 65.98 800.000 21.46 16.72 26.5 29.2 1611
16128.91 66.49 64.29 800.000 21.36 15.38 26.4 29.1 1612
16138.65 66.04 65.61 800.000 21.38 16.20 26.5 29.1 1613
16148.65 66.00 65.42 800.000 21.48 16.35 26.5 29.3 1614
16158.65 66.55 66.02 800.000 21.26 15.06 26.4 29.1 1615
16168.65 66.35 66.48 800.000 21.42 16.58 26.5 29.1 1616
16178.65 66.55 66.12 800.000 21.54 16.20 26.4 29.2 1617
16188.65 66.24 66.59 800.000 21.30 15.12 26.6 29.3 1618
16198.65 66.29 65.60 800.000 21.43 16.60 26.5 29.3 1619
16208.65 66.61 65.74 800.000 21.42 16.03 26.4 29.2 1620
16218.65 66.46 66.43 800.000 21.30 15.85 26.5 29.3 1621
16228.65 65.87 66.43 800.000 21.49 16.57 26.5 29.2 1622
16238.65 66.37 66.61 800.000 21.49 15.91 26.4 29.1 1623
16248.65 66.09 66.47 800.000 21.34 15.91 26.5 29.2 1624
16258.65 65.94 66.53 800.000 21.43 16.01 26.5 29.2 1625
16268.65 66.23 66.50 800.000 21.49 15.98 26.5 29.3 1626
16278.65 66.06 65.98 800.000 21.30 15.53 26.4 29.3 1627
16288.65 64.30 66.00 800.000 21.47 16.67 26.4 29.2 1628
16298.65 64.93 65.88 800.000 21.47 16.19 26.5 29.1 1629
16308.65 65.90 65.87 800.000 21.42 15.36 26.6 29.3 1630
16318.65 65.48 66.00 800.000 21.58 16.58 26.4 29.3 1631
16328.65 66.90 66.05 800.000 21.45 15.66 26.4 29.1 1632
16338.65 66.38 66.01 800.000 21.38 15.91 26.5 29.1 1633
16348.65 66.60 65.65 800.000 21.53 16.45 26.6 29.3 1634
16358.65 65.62 65.36 800.000 21.40 15.19 26.4 29.3 1635
16368.65 65.75 66.22 800.000 21.37 16.09 26.6 29.2 1636
16378.90 66.44 66.44 800.000 21.58 16.20 26.5 29.0 1637
16388.65 66.79 66.19 800.000 21.37 15.21 26.4 29.3 1638
16398.65 66.77 66.45 800.000 21.39 15.93 26.5 29.2 1639
16408.65 66.49 64.97 800.000 21.53 16.00 26.4 29.2 1640
16418.65 66.44 65.74 800.000 21.34 15.49 26.6 29.2 1641
16428.65 66.32 66.30 800.000 21.39 16.19 26.4 29.2 1642
16438.65 66.16 66.12 800.000 21.47 15.81 26.6 29.1 1643
16448.65 66.36 66.61 800.000 21.33 16.06 26.4 29.3 1644
16458.65 65.79 66.37 800.000 21.42 16.22 26.4 29.1 1645
16468.65 65.97 66.14 800.000 21.47 15.35 26.5 29.3 1646
16478.65 65.93 66.00 800.000 21.41 16.68 26.6 29.2 1647
16488.65 65.74 66.73 800.000 21.50 16.33 26.7 29.3 1648
16498.65 66.26 66.27 800.000 21.39 15.06 26.5 29.3 1649
16508.65 67.27 66.06 800.000 21.39 16.44 26.5 29.1 1650
16518.65 64.88 65.80 800.000 21.50 16.07 26.4 29.2 1651
16528.65 65.95 65.98 800.000 21.26 15.17 26.4 29.2 1652
16538.65 66.09 66.33 800.000 21.46 16.64 26.5 29.2 1653
16548.65 66.50 65.80 800.000 21.49 15.75 26.6 29.3 1654
16558.65 66.12 66.36 800.000 21.38 16.04 26.6 29.2 1655
16568.65 66.55 65.41 800.000 21.53 15.75 26.6 29.0 1656
16578.65 65.63 65.84 800.000 21.30 15.40 26.5 29.2 1657
16588.65 65.80 65.87 800.000 21.48 16.40 26.5 29.1 1658
16598.65 66.46 66.05 800.000 21.30 14.80 26.3 29.1 1659
16608.65 66.32 66.47 800.000 21.44 16.41 26.5 29.1 1660
16618.65 66.57 66.19 800.000 21.50 16.23 26.6 29.0 1661
16628.90 66.23 66.61 800.000 21.28 15.29 26.4 29.3 1662
16638.65 67.06 66.12 800.000 21.51 16.44 26.5 29.1 1663
16648.65 66.54 66.46 800.000 21.41 15.23 26.5 29.2 1664
16658.65 66.29 66.34 800.000 21.39 16.36 26.5 29.4 1665
16668.65 66.62 66.30 800.000 21.49 15.49 26.4 29.2 1666
16678.65 65.83 66.58 800.000 21.32 15.96 26.5 29.2 1667
16688.65 66.02 66.20 800.000 21.50 16.48 26.4 29.1 1668
16698.65 66.35 66.60 800.000 21.34 15.09 26.4 29.1 1669
16708.65 65.75 66.35 800.000 21.42 16.02 26.6 29.1 1670
16718.65 66.07 66.26 800.000 21.45 15.57 26.5 29.3 1671
16728.65 66.37 66.62 800.000 21.36 16.23 26.5 29.2 1672
16738.65 64.86 66.36 800.000 21.45 16.01 26.6 29.2 1673
16748.65 65.42 65.78 800.000 21.35 15.39 26.5 29.2 1674
16758.65 67.67 65.89 800.000 21.42 16.14 26.4 29.2 1675
16768.65 65.51 66.16 800.000 21.38 15.21 26.4 29.1 1676
16778.65 65.75 66.30 800.000 21.44 16.51 26.5 29.1 1677
16788.65 66.56 65.83 800.000 21.30 14.73 26.4 29.4 1678
16798.65 66.26 66.37 800.000 21.40 16.22 26.5 29.3 1679
16808.65 66.51 66.52 800.000 21.40 15.42 26.4 29.0 1680
16818.65 65.03 65.43 800.000 21.50 16.69 26.4 29.2 1681
16828.65 68.57 65.42 800.000 21.49 16.06 26.4 29.2 1682
16838.65 65.26 66.48 800.000 21.42 16.15 26.5 29.3 1683
16848.65 66.32 66.22 800.000 21.42 14.94 26.4 29.1 1684
16858.65 66.28 66.53 800.000 21.44 16.19 26.5 29.2 1685
16868.65 66.55 66.21 800.000 21.46 15.60 26.5 29.1 1686
16878.90 66.24 66.58 800.000 21.46 16.45 26.5 29.2 1687
16888.65 67.06 66.12 800.000 21.31 14.80 26.4 29.1 1688
16898.65 66.59 66.49 800.000 21.40 15.99 26.4 29.3 1689
16908.65 66.71 66.32 800.000 21.30 15.04 26.5 29.1 1690
16918.65 66.43 66.64 800.000 21.53 16.32 26.5 29.2 1691
16928.65 66.64 66.73 800.000 21.40 15.32 26.5 29.3 1692
16938.65 66.20 66.53 800.000 21.58 16.17 26.4 29.3 1693
16948.65 66.38 66.75 800.000 21.32 15.32 26.5 29.2 1694
16958.65 66.23 66.42 800.000 21.47 16.05 26.5 29.1 1695
16968.65 66.31 66.69 800.000 21.30 15.42 26.4 29.2 1696
16978.65 66.28 66.41 800.000 21.48 15.14 26.5 29.1 1697
16988.65 66.11 66.62 800.000 21.36 15.51 26.4 29.2 1698
16998.65 66.30 66.77 800.000 21.30 15.06 26.5 29.2 1699
17008.65 66.09 66.43 800.000 21.45 15.97 26.5 29.1 1700
17018.65 64.83 66.44 800.000 21.46 15.49 26.5 29.2 1701
17028.65 65.45 66.38 800.000 21.41 16.27 26.5 29.0 1702
17038.65 66.15 66.32 800.000 21.32 14.60 26.3 29.0 1703
17048.65 66.01 66.09 800.000 21.42 16.35 26.4 29.2 1704
17058.65 66.41 66.38 800.000 21.38 15.14 26.4 29.3 1705
17068.65 66.50 66.42 800.000 21.48 16.25 26.6 29.0 1706
17078.65 66.66 66.29 800.000 21.37 15.24 26.5 29.1 1707
17088.65 66.23 66.32 800.000 21.54 16.22 26.5 29.1 1708
17098.65 66.56 64.81 800.000 21.45 16.50 26.5 29.2 1709
17108.65 64.20 65.47 800.000 21.45 15.16 26.4 29.2 1710
17118.65 65.65 66.21 800.000 21.43 16.22 26.4 29.2 1711
17128.91 66.45 66.04 800.000 21.35 15.07 26.4 29.2 1712
17138.65 66.95 66.41 800.000 21.55 16.18 26.4 29.0 1713
17148.65 66.82 66.64 800.000 21.35 15.11 26.5 29.1 1714
17158.65 66.80 66.55 800.000 21.57 15.60 26.3 29.1 1715
17168.65 66.44 66.69 800.000 21.42 15.98 26.5 29.1 1716
17178.65 66.64 66.26 800.000 21.52 15.59 26.4 29.1 1717
17188.65 66.21 66.64 800.000 21.48 16.39 26.4 29.3 1718
17198.65 66.56 65.56 800.000 21.33 14.95 26.6 29.2 1719
17208.65 66.67 66.20 800.000 21.48 16.50 26.6 29.1 1720
17218.65 66.56 66.26 800.000 21.28 15.06 26.4 29.1 1721
17228.65 66.71 66.59 800.000 21.50 15.66 26.2 29.2 1722
17238.65 66.39 66.69 800.000 21.40 15.38 26.5 29.1 1723
17248.65 66.19 66.28 800.000 21.48 15.16 26.4 29.1 1724
17258.65 66.54 66.50 800.000 21.42 16.17 26.4 29.1 1725
17268.65 66.49 66.83 800.000 21.40 15.03 26.4 29.1 1726
17278.65 66.43 66.53 800.000 21.47 16.45 26.6 29.3 1727
17288.65 66.47 66.41 800.000 21.31 15.10 26.7 29.2 1728
17298.65 65.77 66.59 800.000 21.47 16.11 26.4 29.2 1729
17308.65 66.55 66.26 800.000 21.28 14.99 26.3 29.2 1730
17318.65 65.90 66.61 800.000 21.52 15.96 26.5 29.2 1731
17328.65 66.40 66.71 800.000 21.37 15.61 26.5 29.2 1732
17338.65 64.82 66.47 800.000 21.49 15.76 26.4 29.2 1733
17348.65 66.15 66.49 800.000 21.43 16.41 26.5 29.2 1734
17358.65 66.15 66.31 800.000 21.42 15.26 26.4 29.3 1735
17368.65 66.03 65.83 800.000 21.38 15.94 26.3 29.4 1736
17378.90 66.16 65.99 800.000 21.38 14.93 26.5 29.3 1737
17388.65 66.47 66.40 800.000 21.44 16.14 26.6 29.3 1738
17398.65 66.65 66.48 800.000 21.46 15.28 26.4 29.1 1739
17408.65 66.39 66.20 800.000 21.58 16.60 26.4 29.3 1740
17418.65 66.57 64.78 800.000 21.35 15.20 26.4 29.1 1741
17428.65 64.11 65.38 800.000 21.50 16.18 26.4 29.1 1742
17438.65 66.01 65.86 800.000 21.30 15.04 26.5 29.2 1743
17448.65 66.09 66.44 800.000 21.60 16.30 26.4 29.0 1744
17458.65 66.43 66.57 800.000 21.31 15.09 26.5 29.5 1745
17468.65 66.69 66.59 800.000 21.45 16.06 26.4 29.3 1746
17478.65 65.76 66.65 800.000 21.37 15.78 26.5 29.2 1747
17488.65 66.97 66.30 800.000 21.50 16.29 26.4 29.1 1748
17498.65 66.59 66.59 800.000 21.32 15.45 26.4 29.1 1749
17508.65 66.60 67.43 800.000 21.39 15.98 26.4 29.1 1750
17518.65 66.53 65.23 800.000 21.36 15.06 26.4 29.1 1751
17528.65 66.19 66.32 800.000 21.52 16.37 26.7 29.2 1752
17538.65 66.55 66.61 800.000 21.35 15.39 26.4 29.2 1753
17548.65 66.37 66.39 800.000 21.50 16.23 26.4 29.1 1754
17558.65 66.28 66.22 800.000 21.36 14.95 26.4 29.4 1755
17568.65 65.81 66.59 800.000 21.49 16.58 26.5 29.4 1756
17578.65 66.31 66.67 800.000 21.43 15.14 26.5 29.2 1757
17588.65 66.11 66.56 800.000 21.44 16.41 26.4 29.1 1758
17598.65 66.54 66.36 800.000 21.30 14.68 26.3 29.1 1759
17608.65 65.88 66.62 800.000 21.40 16.35 26.5 29.3 1760
17618.65 66.34 66.25 800.000 21.46 15.42 26.5 29.3 1761
17628.91 65.66 66.34 800.000 21.48 16.73 26.4 29.1 1762
17638.65 66.04 65.80 800.000 21.50 15.81 26.4 29.2 1763
17648.65 65.91 66.01 800.000 21.45 16.05 26.5 29.1 1764
17658.65 66.15 66.07 800.000 21.50 15.32 26.6 29.4 1765
17668.65 66.45 66.49 800.000 21.32 16.15 26.5 29.0 1766
17678.65 66.17 66.19 800.000 21.48 16.08 26.4 29.1 1767
17688.65 66.59 64.81 800.000 21.32 15.81 26.5 29.2 1768
17698.65 64.18 65.42 800.000 21.45 15.96 26.5 29.1 1769
17708.65 65.61 66.19 800.000 21.36 15.17 25.9 29.1 1770
17718.65 66.41 66.33 800.000 21.47 16.48 26.4 29.3 1771
17728.65 66.45 66.06 800.000 21.37 14.97 26.5 29.2 1772
17738.65 66.62 66.42 800.000 21.46 16.22 26.4 29.2 1773
17748.65 66.50 66.22 800.000 21.42 14.89 26.4 29.2 1774
17758.65 66.54 65.76 800.000 21.35 15.67 26.2 29.3 1775
17768.65 66.44 64.53 800.000 21.52 16.11 26.5 29.1 1776
17778.65 66.19 66.08 800.000 21.27 15.76 26.4 29.1 1777
17788.65 66.62 66.34 800.000 21.57 16.50 26.5 29.1 1778
17798.65 66.37 66.58 800.000 21.38 15.42 26.4 29.1 1779
17808.65 66.14 66.49 800.000 21.40 16.36 26.4 29.4 1780
17818.65 66.34 66.38 800.000 21.53 15.64 26.3 29.0 1781
17828.65 65.72 66.58 800.000 21.37 15.78 26.4 29.1 1782
17838.65 65.99 66.50 800.000 21.46 16.59 26.6 29.2 1783
17848.65 66.31 66.34 800.000 21.46 15.03 26.3 29.0 1784
17858.65 65.78 66.59 800.000 21.27 15.98 26.5 29.3 1785
17868.65 66.31 66.21 800.000 21.37 16.26 26.5 29.1 1786
17878.91 65.69 66.21 800.000 21.29 14.89 26.1 29.3 1787
17888.65 65.41 66.03 800.000 21.45 16.33 26.5 29.3 1788
17898.67 66.25 66.00 800.000 21.48 16.25 26.4 29.4 1789
17908.67 66.39 66.15 800.000 21.34 15.65 26.4 29.3 1790
17918.68 66.09 66.01 800.000 21.43 16.32 26.6 29.1 1791
17928.67 66.12 64.36 800.000 21.49 16.01 26.3 29.1 1792
17938.68 65.10 65.78 800.000 21.29 15.95 26.4 29.1 1793
17948.68 65.81 65.85 800.000 21.48 16.50 26.6 29.1 1794
17958.67 66.09 65.95 800.000 21.44 16.35 26.5 29.2 1795
17968.67 66.18 66.11 800.000 21.34 15.60 26.7 29.1 1796
17978.68 66.64 66.62 800.000 21.36 16.04 26.4 29.2 1797
17988.68 66.33 64.12 800.000 21.52 16.55 26.3 29.1 1798
17998.68 66.49 66.01 800.000 21.45 15.31 26.4 29.2 1799
18008.67 66.61 66.48 800.000 21.36 16.01 26.5 29.1 1800
18018.68 66.52 66.62 800.000 21.44 16.56 26.5 29.2 1801
18028.67 66.11 66.07 800.000 21.45 15.57 26.5 29.1 1802
18038.68 65.73 66.54 800.000 21.26 15.64 26.5 29.2 1803
18048.68 65.50 66.37 800.000 21.48 16.49 26.5 29.2 1804
18058.68 65.90 66.15 800.000 21.53 16.34 26.5 29.0 1805
18068.67 66.27 66.26 800.000 21.36 15.22 26.5 29.1 1806
18078.68 64.31 66.04 800.000 21.36 16.10 26.3 29.3 1807
18088.68 65.34 66.00 800.000 21.35 16.64 26.5 29.0 1808
18098.67 65.78 65.76 800.000 21.45 16.04 26.5 29.1 1809
18108.67 66.36 66.33 800.000 21.30 15.37 26.4 29.0 1810
18118.68 66.08 65.74 800.000 21.31 16.09 26.5 29.2 1811
18128.92 66.48 65.30 800.000 21.52 16.46 26.4 29.1 1812
18138.68 65.59 65.30 800.000 21.40 16.04 26.4 29.3 1813
18148.68 66.29 66.16 800.000 21.41 15.87 26.3 29.0 1814
18158.68 66.60 66.40 800.000 21.45 16.60 26.6 29.2 1815
18168.68 66.36 66.19 800.000 21.53 16.14 26.4 29.1 1816
18178.68 66.23 66.49 800.000 21.45 15.55 26.4 29.1 1817
18188.68 66.15 65.02 800.000 21.35 16.02 26.4 29.1 1818
18198.67 66.62 66.02 800.000 21.54 16.46 26.3 29.1 1819
18208.68 66.40 66.46 800.000 21.43 15.69 26.4 29.0 1820
18218.68 66.06 66.52 800.000 21.28 15.40 26.5 29.2 1821
18228.67 65.72 66.34 800.000 21.46 16.96 26.6 29.1 1822
18238.67 66.32 66.58 800.000 21.48 15.86 26.4 29.2 1823
18248.68 66.14 66.03 800.000 21.39 15.23 26.4 29.0 1824
18258.67 65.58 66.36 800.000 21.44 16.35 26.5 29.1 1825
18268.68 64.56 66.36 800.000 21.42 16.23 26.4 29.2 1826
18278.68 65.36 65.82 800.000 21.45 16.28 26.6 29.3 1827
18288.67 65.89 66.00 800.000 21.35 15.87 26.4 29.0 1828
18298.67 65.93 65.93 800.000 21.50 16.57 26.5 29.3 1829
18308.67 66.35 66.14 800.000 21.51 16.09 26.4 29.1 1830
18318.68 66.41 64.58 800.000 21.33 15.49 26.5 29.1 1831
18328.68 64.09 65.36 800.000 21.45 16.70 26.4 29.0 1832
18338.67 65.63 65.22 800.000 21.46 16.20 26.5 29.2 1833
18348.67 66.14 66.05 800.000 21.33 15.44 26.3 29.3 1834
18358.68 66.55 66.44 800.000 21.43 16.74 26.4 29.2 1835
18368.67 66.36 66.10 800.000 21.40 16.36 26.4 29.2 1836
18378.93 66.23 66.56 800.000 21.34 15.21 26.4 29.1 1837
18388.67 66.80 65.64 800.000 21.36 16.30 26.4 29.2 1838
18398.68 66.72 66.23 800.000 21.45 16.43 26.4 29.1 1839
18408.68 66.56 66.16 800.000 21.43 15.21 26.4 29.1 1840
18418.68 65.88 66.62 800.000 21.34 16.09 26.5 29.1 1841
18428.68 66.38 66.39 800.000 21.47 16.41 26.4 29.1 1842
18438.67 65.67 66.19 800.000 21.51 15.99 26.5 29.1 1843
18448.68 66.21 66.58 800.000 21.31 15.57 26.5 29.1 1844
18458.67 65.72 66.33 800.000 21.43 16.65 26.5 29.2 1845
18468.68 66.21 66.16 800.000 21.48 15.85 26.4 29.2 1846
18478.68 65.15 66.25 800.000 21.41 16.57 26.4 29.2 1847
18488.67 65.77 65.84 800.000 21.43 16.59 26.5 29.2 1848
18498.68 66.28 66.28 800.000 21.46 16.01 26.4 29.1 1849
18508.67 66.49 66.23 800.000 21.39 15.50 26.4 29.3 1850
18518.67 66.18 65.93 800.000 21.44 16.85 26.6 29.1 1851
18528.67 66.35 64.53 800.000 21.45 15.90 26.5 29.2 1852
18538.68 65.03 65.72 800.000 21.36 16.09 26.4 29.2 1853
18548.68 65.76 65.87 800.000 21.60 16.57 26.5 29.0 1854
18558.67 66.36 65.92 800.000 21.53 15.94 26.5 29.2 1855
18568.67 66.07 66.55 800.000 21.39 16.23 26.4 29.3 1856
18578.67 66.57 66.22 800.000 21.47 16.29 26.5 29.1 1857
18588.67 66.27 63.98 800.000 21.42 15.28 26.6 29.1 1858
18598.68 66.10 65.92 800.000 21.45 16.53 26.4 29.0 1859
18608.68 66.73 66.44 800.000 21.54 16.02 26.5 29.0 1860
18618.67 66.42 66.62 800.000 21.41 15.11 26.4 29.3 1861
18628.92 66.15 66.49 800.000 21.42 16.65 26.5 29.0 1862
18638.67 66.42 66.82 800.000 21.43 15.45 26.7 28.9 1863
18648.68 65.84 66.83 800.000 21.33 15.49 26.5 29.3 1864
18658.67 66.02 66.61 800.000 21.39 16.67 26.5 29.1 1865
18668.68 66.32 66.41 800.000 21.35 15.44 26.5 29.5 1866
18678.67 65.81 66.61 800.000 21.42 15.69 26.5 29.1 1867
18688.68 66.30 66.53 800.000 21.53 16.58 26.4 29.1 1868
18698.67 65.40 66.16 800.000 21.28 15.04 26.4 29.2 1869
18708.67 65.65 66.03 800.000 21.42 16.17 26.5 29.0 1870
18718.67 66.28 66.31 800.000 21.53 16.23 26.4 29.1 1871
18728.68 66.41 66.04 800.000 21.28 15.71 26.4 29.1 1872
18738.68 66.11 66.00 800.000 21.48 16.08 26.4 29.2 1873
18748.67 66.48 64.68 800.000 21.47 15.51 26.4 29.3 1874
