% 1   Time (ms)
% 2,3 (a,b) calculated rotations per second (2 sensors)
% 4   ESC PW (ms) (motor 1)
% 5   Battery voltage (V)
% 6   Battery current (A)
% 7   Motor temp (deg C)
% 8   ESC temp (deg C)
% 
1.56 10.78 427.38 130.000 16.41 -0.55 24.8 23.3 0
4.06 10.79 427.38 130.000 16.41 -0.57 24.2 23.1 1
6.57 10.79 427.38 130.000 16.41 1.30 24.7 23.3 2
9.06 10.79 427.38 130.000 16.41 -0.56 28.1 23.0 3
11.57 10.79 427.38 130.000 16.41 1.28 25.0 23.3 4
14.07 10.79 427.38 130.000 16.40 -0.54 24.7 23.4 5
16.57 10.79 427.38 130.000 17.35 -0.56 24.9 23.4 6
19.07 10.79 427.38 130.000 19.19 -0.55 24.8 23.3 7
21.56 10.79 427.38 130.000 16.41 -0.56 24.5 23.9 8
24.07 10.79 427.38 130.000 16.42 -0.56 24.9 23.3 9
26.57 10.79 427.38 130.000 17.35 -0.56 24.8 23.3 10
29.07 10.79 427.38 130.000 16.40 -0.55 24.8 23.3 11
31.57 10.79 427.38 130.000 16.41 -0.55 24.7 23.6 12
34.06 10.79 427.38 130.000 16.41 1.30 24.8 23.3 13
36.57 10.79 289.75 130.000 16.40 -0.54 24.6 23.2 14
39.06 10.82 289.75 130.000 16.40 -0.55 24.9 23.2 15
41.57 10.82 289.75 130.000 17.33 1.30 24.8 23.3 16
44.07 10.82 289.75 130.000 16.41 -0.55 25.0 23.3 17
46.57 10.82 459.78 130.000 18.28 -0.56 24.9 23.4 18
49.07 10.80 459.78 130.000 17.34 -0.54 23.2 23.3 19
51.56 10.80 459.78 130.000 16.40 -0.54 24.8 23.2 20
54.07 10.80 459.78 130.000 16.40 -0.57 24.9 23.2 21
56.57 10.80 459.78 130.000 16.41 -0.56 24.6 23.3 22
59.06 10.80 459.78 130.000 16.41 -0.54 25.0 23.3 23
61.57 10.80 459.78 130.000 17.35 -0.58 24.7 23.2 24
64.06 10.80 459.78 130.000 17.35 -0.55 24.5 23.4 25
66.57 10.80 459.78 130.000 17.34 1.29 24.8 23.4 26
69.06 10.80 459.78 130.000 17.33 -0.56 24.8 23.3 27
71.57 10.80 459.78 130.000 17.34 1.29 24.7 23.3 28
74.07 10.80 459.78 130.000 16.41 -0.54 24.8 23.4 29
76.57 10.80 459.78 130.000 17.34 -0.53 24.6 23.2 30
79.07 10.80 459.78 130.000 16.41 -0.54 24.8 23.3 31
81.56 10.80 311.39 130.000 16.41 -0.57 24.7 23.3 32
84.06 10.80 311.39 130.000 16.41 1.27 24.8 23.2 33
86.56 10.77 311.39 130.000 17.34 -0.55 35.2 23.8 34
89.07 10.77 311.39 130.000 16.41 -0.55 25.0 23.4 35
91.56 10.77 318.90 130.000 17.34 -0.55 24.9 23.2 36
94.06 10.77 553.63 130.000 17.35 -0.55 21.2 23.1 37
96.57 10.78 553.63 130.000 16.41 -0.59 25.0 23.2 38
99.07 10.78 553.63 130.000 17.34 -0.55 24.9 23.2 39
101.57 10.78 553.63 130.000 16.40 -0.55 25.0 23.3 40
104.06 10.78 553.63 130.000 16.40 1.28 24.9 23.2 41
106.56 10.78 553.63 130.000 17.33 1.30 24.9 23.4 42
109.07 10.78 553.63 130.000 16.42 -0.58 24.4 23.7 43
111.56 10.78 553.63 130.000 16.41 -0.55 25.0 23.4 44
114.07 10.78 553.63 130.000 18.27 -0.56 28.6 23.2 45
116.57 10.78 553.63 130.000 16.41 -0.54 24.7 23.1 46
119.06 10.78 553.63 130.000 17.34 -0.56 28.9 23.1 47
121.56 10.78 553.63 130.000 17.34 1.29 24.5 23.5 48
124.06 10.78 553.63 130.000 16.41 -0.57 29.0 23.3 49
126.56 10.78 553.63 130.000 16.41 1.30 24.7 23.3 50
129.07 10.78 374.02 130.000 16.41 -0.54 24.9 23.4 51
131.57 10.84 374.02 130.000 17.34 1.30 35.4 23.3 52
134.07 10.84 374.02 130.000 18.27 -0.56 24.9 23.3 53
136.57 10.84 374.02 130.000 16.41 -0.55 24.8 23.3 54
139.06 10.84 601.32 130.000 18.27 -0.59 23.3 23.5 55
141.56 10.82 492.62 130.000 16.40 -0.53 24.7 23.8 56
144.07 10.82 492.62 130.000 16.40 -0.54 24.6 23.4 57
146.57 10.82 492.62 130.000 18.26 -0.57 25.0 23.1 58
149.06 10.82 492.62 130.000 18.26 -0.56 24.6 23.1 59
151.57 10.82 492.62 130.000 16.42 1.31 24.7 23.3 60
154.07 10.82 492.62 130.000 16.41 -0.56 28.1 23.1 61
156.57 10.82 492.62 130.000 17.34 1.27 24.9 23.3 62
159.06 10.82 492.62 130.000 16.40 -0.56 24.9 23.3 63
161.56 10.82 492.62 130.000 16.41 3.13 25.2 23.2 64
164.06 10.82 492.62 130.000 16.41 -0.56 28.9 23.2 65
166.56 10.82 492.62 130.000 16.41 1.28 24.8 23.5 66
169.07 10.82 492.62 130.000 17.35 -0.55 24.9 23.2 67
171.57 10.82 492.62 130.000 17.33 -0.54 24.6 23.1 68
174.06 10.82 333.48 130.000 17.34 -0.58 24.9 23.3 69
176.56 10.82 333.48 130.000 17.34 3.13 25.1 23.3 70
179.06 10.77 333.48 130.000 16.40 -0.56 24.6 23.3 71
181.57 10.77 333.48 130.000 16.41 1.28 34.7 23.3 72
184.06 10.77 226.17 130.000 16.41 -0.55 26.8 23.2 73
186.56 10.77 226.17 130.000 16.41 1.30 25.0 23.4 74
189.07 10.76 226.17 130.000 16.41 -0.56 23.9 23.2 75
191.57 10.76 226.17 130.000 18.28 -0.57 24.9 23.3 76
194.07 10.76 226.17 130.000 17.35 -0.55 26.6 23.1 77
196.57 10.76 226.17 130.000 16.40 -0.53 24.8 23.2 78
199.07 10.76 226.17 130.000 17.33 -0.55 24.7 23.3 79
201.57 10.76 226.17 130.000 17.34 -0.54 24.7 23.3 80
204.06 10.76 226.17 130.000 17.35 -0.54 28.4 23.3 81
206.57 10.76 226.17 130.000 18.27 1.28 28.6 23.1 82
209.06 10.76 226.17 130.000 17.34 -0.54 24.8 23.2 83
211.56 10.76 226.17 130.000 17.34 -0.57 25.0 23.2 84
214.07 10.76 226.17 130.000 17.34 3.12 29.1 23.1 85
216.56 10.76 226.17 130.000 18.28 1.30 24.7 23.2 86
219.07 10.76 226.17 130.000 18.28 -0.54 24.9 23.1 87
221.56 10.76 154.30 130.000 17.34 -0.56 24.8 23.4 88
224.07 10.82 154.30 130.000 17.35 -0.54 36.0 23.1 89
226.56 10.82 154.30 130.000 17.34 1.28 24.7 23.2 90
229.07 10.82 154.30 130.000 16.41 -0.57 24.9 23.3 91
231.57 10.82 318.90 130.000 16.40 -0.55 24.6 23.2 92
234.07 10.82 318.90 130.000 17.35 -0.58 25.2 23.4 93
236.56 10.82 318.90 130.000 16.40 -0.54 24.7 23.4 94
239.07 10.82 318.90 130.000 18.26 -0.55 24.7 23.4 95
241.56 10.82 318.90 130.000 17.33 -0.55 25.0 23.7 96
244.07 10.82 318.90 130.000 16.41 -0.54 27.8 23.2 97
246.56 10.82 318.90 130.000 16.40 -0.54 24.7 23.3 98
249.07 10.82 318.90 130.000 16.41 -0.56 24.9 23.4 99
251.57 10.82 318.90 130.000 16.40 -0.54 24.8 23.3 100
254.06 10.82 318.90 130.000 16.40 -0.55 24.8 23.3 101
256.57 10.82 318.90 130.000 17.34 -0.56 24.7 23.3 102
259.06 10.82 318.90 130.000 17.33 -0.57 24.7 23.2 103
261.56 10.82 318.90 130.000 16.41 3.13 25.1 23.3 104
264.07 10.82 318.90 130.000 17.34 -0.56 29.3 23.4 105
266.57 10.82 217.38 130.000 17.34 -0.56 24.7 23.2 106
269.06 10.81 217.38 130.000 17.33 -0.55 25.1 23.2 107
271.57 10.81 217.38 130.000 16.40 -0.57 24.5 23.2 108
274.07 10.81 217.38 130.000 17.34 -0.56 24.4 23.3 109
276.57 10.81 114.08 130.000 16.41 1.28 24.8 23.4 110
279.06 10.81 283.01 130.000 17.34 1.29 24.7 23.6 111
281.57 10.79 283.01 130.000 19.20 1.29 24.7 23.3 112
284.06 10.79 283.01 130.000 17.35 -0.56 25.4 23.4 113
286.56 10.79 283.01 130.000 18.27 1.28 24.9 23.2 114
289.07 10.79 283.01 130.000 16.40 -0.54 25.0 23.3 115
291.57 10.79 283.01 130.000 17.34 -0.56 24.9 23.4 116
294.06 10.79 283.01 130.000 17.34 -0.56 28.3 23.1 117
296.57 10.79 283.01 130.000 16.41 1.29 28.5 23.1 118
299.06 10.79 283.01 130.000 17.34 -0.54 32.7 23.3 119
301.56 10.79 283.01 130.000 16.41 -0.56 24.6 23.4 120
304.06 10.79 283.01 130.000 16.41 1.28 24.8 23.2 121
306.56 10.79 283.01 130.000 16.41 1.26 24.9 23.4 122
309.07 10.79 283.01 130.000 17.33 -0.54 24.7 23.3 123
311.56 10.79 283.01 130.000 18.26 -0.54 24.9 23.6 124
314.07 10.79 193.56 130.000 17.34 -0.55 37.0 23.3 125
316.57 10.79 193.56 130.000 16.41 -0.56 24.7 23.4 126
319.07 10.79 193.56 130.000 17.34 -0.56 24.8 23.3 127
321.57 10.79 193.56 130.000 17.33 -0.54 25.0 23.6 128
324.07 10.79 188.95 130.000 16.40 1.30 24.9 23.4 129
326.56 10.81 188.95 130.000 16.41 -0.56 24.9 23.3 130
329.07 10.81 188.95 130.000 17.34 1.28 24.9 23.4 131
331.57 10.81 188.95 130.000 16.41 -0.56 24.8 23.4 132
334.07 10.81 188.95 130.000 17.35 -0.55 26.9 23.1 133
336.57 10.81 188.95 130.000 16.40 -0.55 28.0 23.3 134
339.06 10.81 188.95 130.000 16.41 -0.56 25.0 23.7 135
341.56 10.81 188.95 130.000 16.42 -0.56 25.0 23.2 136
344.07 10.81 188.95 130.000 17.34 -0.55 24.6 23.4 137
346.57 10.81 188.95 130.000 18.27 -0.55 25.0 23.3 138
349.06 10.81 188.95 130.000 16.40 -0.55 24.7 23.4 139
351.57 10.81 188.95 130.000 16.40 1.29 24.9 23.3 140
354.06 10.81 188.95 130.000 17.35 -0.56 29.1 23.3 141
356.57 10.81 188.95 130.000 17.35 -0.59 29.1 23.1 142
359.07 10.81 130.89 130.000 17.35 -0.56 36.0 23.4 143
361.56 10.79 130.89 130.000 18.27 1.30 24.5 23.4 144
364.07 10.79 130.89 130.000 17.35 1.27 25.0 23.2 145
366.57 10.79 130.89 130.000 18.29 -0.56 24.5 23.1 146
369.06 10.79 91.02 130.000 16.41 -0.54 24.7 23.4 147
371.57 10.79 101.00 130.000 16.42 1.29 25.2 23.4 148
374.07 10.76 101.00 130.000 18.27 -0.57 24.5 23.4 149
376.57 10.76 101.00 130.000 16.41 -0.57 25.5 23.2 150
379.07 10.76 101.00 130.000 16.41 1.29 24.8 23.7 151
381.57 10.76 101.00 130.000 17.35 -0.54 24.9 23.4 152
384.06 10.76 101.00 130.000 17.33 -0.56 24.8 23.5 153
386.56 10.76 101.00 130.000 17.34 1.31 24.8 23.3 154
389.07 10.76 101.00 130.000 19.21 -0.55 28.7 23.0 155
391.56 10.76 101.00 130.000 17.34 -0.55 24.9 23.2 156
394.06 10.76 101.00 130.000 19.20 -0.56 28.9 23.2 157
396.57 10.76 101.00 130.000 17.34 1.28 29.1 23.3 158
399.06 10.76 101.00 130.000 16.40 -0.53 24.7 23.6 159
401.56 10.76 101.00 130.000 16.41 3.13 24.9 23.4 160
404.06 10.76 72.44 130.000 17.34 1.28 35.2 22.9 161
406.57 10.76 72.44 130.000 16.41 -0.55 36.8 23.4 162
409.07 10.77 72.44 130.000 17.34 -0.55 24.9 23.4 163
411.57 10.77 72.44 130.000 16.41 -0.55 25.0 23.4 164
414.07 10.77 72.44 130.000 16.40 -0.55 24.8 23.2 165
416.56 10.77 403.38 130.000 18.27 -0.55 24.9 23.3 166
419.06 10.82 403.38 130.000 16.41 1.28 23.3 23.3 167
421.56 10.82 403.38 130.000 17.34 1.30 24.4 23.5 168
424.07 10.82 403.38 130.000 17.34 -0.54 27.2 23.2 169
426.56 10.82 403.38 130.000 16.41 -0.55 24.7 23.3 170
429.07 10.82 403.38 130.000 16.40 -0.54 24.7 23.1 171
431.57 10.82 403.38 130.000 16.41 -0.55 24.9 23.3 172
434.06 10.82 403.38 130.000 16.41 -0.54 24.8 23.1 173
436.56 10.82 403.38 130.000 18.26 1.29 25.0 23.2 174
439.07 10.82 403.38 130.000 17.34 -0.55 24.9 23.3 175
441.57 10.82 403.38 130.000 17.33 -0.55 24.7 23.3 176
444.06 10.82 403.38 130.000 17.35 -0.56 24.7 23.5 177
446.56 10.82 403.38 130.000 17.34 1.29 24.7 23.5 178
449.07 10.82 403.38 130.000 16.41 -0.56 25.1 23.2 179
451.56 10.82 273.87 130.000 19.21 -0.54 24.8 23.1 180
454.06 10.81 273.87 130.000 17.34 1.29 24.9 23.6 181
456.57 10.81 273.87 130.000 17.33 -0.55 24.7 23.4 182
459.06 10.81 273.87 130.000 16.41 -0.55 24.5 23.5 183
461.56 10.81 270.37 130.000 16.41 -0.56 24.9 23.7 184
464.06 10.81 263.25 130.000 16.42 -0.56 25.0 23.8 185
466.57 10.77 263.25 130.000 17.34 1.29 24.6 23.3 186
469.06 10.77 263.25 130.000 17.34 1.27 25.1 23.2 187
471.57 10.77 263.25 130.000 17.35 1.28 24.8 23.2 188
474.06 10.77 263.25 130.000 17.33 -0.56 24.9 23.4 189
476.57 10.77 263.25 130.000 18.27 1.29 24.7 23.2 190
479.06 10.77 263.25 130.000 16.41 -0.55 24.9 23.4 191
481.57 10.77 263.25 130.000 16.40 -0.55 28.7 23.3 192
484.06 10.77 263.25 130.000 17.34 -0.56 24.6 23.3 193
486.56 10.77 263.25 130.000 16.41 1.28 24.9 23.1 194
489.07 10.77 263.25 130.000 16.41 -0.56 25.1 23.4 195
491.56 10.77 263.25 130.000 17.34 -0.54 24.8 23.2 196
494.06 10.77 263.25 130.000 16.41 1.31 25.1 23.3 197
496.57 10.77 180.55 130.000 18.27 1.28 29.9 23.6 198
499.06 10.77 180.55 130.000 16.41 -0.56 24.9 23.3 199
501.56 10.78 180.55 130.000 16.41 3.11 24.5 23.3 200
504.06 10.78 180.55 130.000 16.41 3.12 44.9 23.2 201
506.56 10.78 180.55 130.000 17.34 -0.53 24.8 23.2 202
509.07 10.78 494.42 130.000 19.20 -0.55 22.8 23.3 203
511.56 10.82 494.42 130.000 16.41 -0.55 24.7 23.3 204
514.07 10.82 494.42 130.000 18.27 -0.55 25.0 23.4 205
516.56 10.82 494.42 130.000 18.27 1.29 24.7 23.1 206
519.06 10.82 494.42 130.000 16.41 -0.53 27.1 23.3 207
521.56 10.82 494.42 130.000 16.41 -0.54 25.0 23.2 208
524.07 10.82 494.42 130.000 16.41 -0.56 27.9 23.2 209
526.56 10.82 494.42 130.000 18.26 1.30 24.9 23.6 210
529.06 10.82 494.42 130.000 16.41 1.28 25.0 23.2 211
531.57 10.82 494.42 130.000 16.41 -0.55 24.9 23.4 212
534.06 10.82 494.42 130.000 16.40 -0.55 24.9 23.2 213
536.56 10.82 494.42 130.000 18.27 1.30 24.6 23.5 214
539.07 10.82 494.42 130.000 17.34 1.29 29.3 23.1 215
541.57 10.82 494.42 130.000 17.34 1.30 24.9 23.4 216
544.07 10.82 334.54 130.000 16.42 3.12 24.6 23.2 217
546.56 10.81 334.54 130.000 18.27 -0.54 24.9 23.5 218
549.06 10.81 334.54 130.000 16.40 -0.57 24.9 23.2 219
551.56 10.81 334.54 130.000 19.20 1.28 24.8 23.0 220
554.06 10.81 226.78 130.000 17.34 1.28 26.0 23.3 221
556.57 10.81 187.38 130.000 16.41 1.29 24.6 23.2 222
559.06 10.76 187.38 130.000 16.40 -0.56 24.8 23.5 223
561.56 10.76 187.38 130.000 16.41 1.29 24.9 23.4 224
564.06 10.76 187.38 130.000 16.41 -0.55 26.6 23.3 225
566.56 10.76 187.38 130.000 16.41 1.28 24.5 23.4 226
569.07 10.76 187.38 130.000 17.34 -0.55 24.8 23.2 227
571.56 10.76 187.38 130.000 18.27 -0.55 24.7 23.3 228
574.07 10.76 187.38 130.000 17.33 -0.55 28.6 23.2 229
576.56 10.76 187.38 130.000 18.28 1.28 24.9 23.3 230
579.06 10.76 187.38 130.000 16.40 -0.56 29.0 23.4 231
581.56 10.76 187.38 130.000 16.41 -0.56 24.4 23.4 232
584.07 10.76 187.38 130.000 18.27 -0.54 24.6 23.3 233
586.57 10.76 187.38 130.000 18.26 -0.56 24.9 23.3 234
589.06 10.76 129.94 130.000 16.40 -0.54 30.9 23.2 235
591.57 10.76 129.94 130.000 17.34 -0.57 24.9 23.3 236
594.06 10.76 129.94 130.000 17.35 -0.55 24.8 23.3 237
596.56 10.76 129.94 130.000 17.34 -0.56 24.9 23.3 238
599.07 10.76 90.46 130.000 18.27 -0.55 24.8 23.3 239
601.57 10.76 153.92 130.000 16.40 -0.58 24.9 23.5 240
604.06 10.80 153.92 130.000 16.40 -0.54 23.3 23.1 241
606.57 10.80 153.92 130.000 17.33 -0.54 24.6 23.3 242
609.06 10.80 153.92 130.000 16.41 -0.56 24.9 23.3 243
611.57 10.80 153.92 130.000 16.41 1.31 24.8 23.3 244
614.06 10.80 153.92 130.000 16.41 -0.56 24.8 23.1 245
616.56 10.80 153.92 130.000 17.34 1.28 24.8 23.3 246
619.06 10.80 153.92 130.000 16.41 -0.54 28.6 23.2 247
621.56 10.80 153.92 130.000 16.41 -0.55 24.7 23.2 248
624.07 10.80 153.92 130.000 17.34 -0.56 29.0 23.4 249
626.57 10.80 153.92 130.000 16.40 -0.56 24.9 23.2 250
629.07 10.80 153.92 130.000 17.34 -0.56 24.8 23.2 251
631.56 10.80 153.92 130.000 17.35 -0.55 24.9 23.3 252
634.06 10.80 153.92 130.000 20.12 -0.55 24.9 23.2 253
636.57 10.80 107.43 130.000 16.41 -0.56 24.7 23.4 254
639.07 10.80 107.43 130.000 16.40 -0.53 25.0 23.1 255
641.57 10.80 107.43 130.000 16.40 1.28 25.0 23.4 256
644.06 10.80 107.43 130.000 16.40 3.12 34.8 23.2 257
646.57 10.80 221.30 130.000 16.41 1.29 23.1 23.3 258
649.06 10.80 257.32 130.000 16.40 -0.54 24.8 23.2 259
651.57 10.75 257.32 130.000 16.41 -0.56 24.8 23.3 260
654.07 10.75 257.32 130.000 17.33 -0.55 24.9 23.1 261
656.57 10.75 257.32 130.000 16.41 -0.55 24.9 23.3 262
659.06 10.75 257.32 130.000 17.35 3.13 24.9 23.3 263
661.57 10.75 257.32 130.000 17.35 1.29 24.6 23.3 264
664.06 10.75 257.32 130.000 17.33 -0.53 24.7 23.2 265
666.57 10.75 257.32 130.000 16.41 1.29 24.8 23.2 266
669.06 10.75 257.32 130.000 16.40 -0.55 25.1 23.0 267
671.57 10.75 257.32 130.000 18.27 -0.55 24.9 23.2 268
674.07 10.75 257.32 130.000 18.28 -0.56 29.0 23.3 269
676.56 10.75 257.32 130.000 16.41 1.26 24.8 23.4 270
679.07 10.75 257.32 130.000 16.41 -0.54 29.1 23.2 271
681.57 10.75 176.61 130.000 16.41 -0.55 24.7 23.3 272
684.06 10.75 176.61 130.000 17.34 -0.56 24.4 23.4 273
686.56 10.77 176.61 130.000 18.26 -0.56 25.0 23.3 274
689.07 10.77 176.61 130.000 19.20 -0.56 34.5 23.1 275
691.56 10.77 121.59 130.000 16.41 -0.54 24.9 23.4 276
694.07 10.77 267.40 130.000 16.41 1.29 21.1 23.1 277
696.56 10.83 271.71 130.000 16.41 -0.56 24.9 23.2 278
699.06 10.83 271.71 130.000 16.41 -0.55 24.9 23.5 279
701.57 10.83 271.71 130.000 17.34 -0.56 24.7 23.3 280
704.06 10.83 271.71 130.000 16.41 -0.53 24.9 23.6 281
706.56 10.83 271.71 130.000 16.40 1.28 24.9 23.3 282
709.06 10.83 271.71 130.000 17.33 -0.54 25.0 23.2 283
711.56 10.83 271.71 130.000 17.34 1.29 24.9 23.3 284
714.07 10.83 271.71 130.000 17.33 1.29 32.5 23.2 285
716.57 10.83 271.71 130.000 16.40 -0.54 24.7 23.2 286
719.06 10.83 271.71 130.000 16.40 -0.55 24.9 23.2 287
721.56 10.83 271.71 130.000 17.33 1.29 24.6 23.3 288
724.06 10.83 271.71 130.000 16.41 -0.55 29.0 23.2 289
726.56 10.83 271.71 130.000 17.34 1.27 25.1 23.2 290
729.07 10.83 186.11 130.000 17.35 1.28 25.2 23.5 291
731.56 10.84 186.11 130.000 18.25 -0.55 24.5 23.3 292
734.06 10.84 186.11 130.000 19.21 -0.55 24.9 23.3 293
736.57 10.84 186.11 130.000 17.33 1.30 34.6 23.0 294
739.06 10.84 215.18 130.000 19.21 1.31 24.9 23.3 295
741.56 10.84 215.18 130.000 16.41 1.28 24.7 23.4 296
744.06 10.77 215.18 130.000 16.41 1.28 24.6 23.3 297
746.56 10.77 215.18 130.000 17.34 1.31 24.9 23.2 298
749.06 10.77 215.18 130.000 16.41 1.27 24.9 23.3 299
751.56 10.77 215.18 130.000 16.41 1.29 24.9 23.6 300
754.06 10.77 215.18 130.000 17.34 -0.55 27.8 23.1 301
756.57 10.77 215.18 130.000 17.35 -0.56 24.5 23.2 302
759.06 10.77 215.18 130.000 16.40 -0.55 24.9 23.4 303
761.56 10.77 215.18 130.000 16.41 1.28 25.1 23.2 304
764.06 10.77 215.18 130.000 16.41 -0.54 32.5 23.3 305
766.56 10.77 215.18 130.000 17.34 1.28 24.9 23.3 306
769.07 10.77 215.18 130.000 17.35 -0.55 24.9 23.4 307
771.56 10.77 215.18 130.000 17.33 -0.54 24.6 23.4 308
774.07 10.77 148.24 130.000 17.34 1.31 33.5 23.0 309
776.56 10.77 148.24 130.000 17.34 1.28 25.2 23.3 310
779.06 10.77 148.24 130.000 17.34 -0.57 24.9 23.4 311
781.57 10.77 148.24 130.000 16.41 -0.56 24.8 23.3 312
784.07 10.77 102.52 130.000 17.34 -0.56 24.8 23.3 313
786.56 10.77 102.52 130.000 16.41 -0.57 25.1 23.2 314
789.07 10.83 102.52 130.000 16.41 -0.56 23.6 23.6 315
791.56 10.83 102.52 130.000 18.27 -0.54 24.9 23.1 316
794.07 10.83 102.52 130.000 17.33 -0.55 24.9 23.3 317
796.57 10.83 102.52 130.000 17.34 1.30 27.3 23.2 318
799.06 10.83 102.52 130.000 16.40 -0.55 24.9 23.5 319
801.56 10.83 102.52 130.000 17.34 1.30 24.7 23.3 320
804.06 10.83 102.52 130.000 16.40 -0.54 28.7 23.2 321
806.56 10.83 102.52 130.000 16.40 1.29 25.0 23.5 322
809.06 10.83 102.52 130.000 16.41 -0.57 25.1 23.4 323
811.56 10.83 102.52 130.000 18.28 1.28 24.9 23.4 324
814.07 10.83 102.52 130.000 16.41 1.29 32.9 23.2 325
816.56 10.83 102.52 130.000 17.35 -0.57 24.8 23.1 326
819.06 10.83 102.52 130.000 17.34 -0.58 29.0 23.2 327
821.57 10.83 71.92 130.000 16.41 -0.57 24.9 23.3 328
824.06 10.83 71.92 130.000 18.26 -0.54 24.7 23.3 329
826.57 10.83 71.92 130.000 16.41 -0.56 24.7 23.8 330
829.07 10.83 71.92 130.000 16.40 -0.54 24.5 23.7 331
831.56 10.83 51.53 130.000 17.34 1.28 24.8 23.6 332
834.06 10.83 90.21 130.000 18.27 1.31 24.8 23.3 333
836.57 10.77 90.21 130.000 17.35 -0.54 24.9 23.9 334
839.06 10.77 90.21 130.000 16.41 -0.54 24.9 23.6 335
841.56 10.77 90.21 130.000 17.33 1.31 24.7 23.4 336
844.06 10.77 90.21 130.000 16.41 -0.55 27.6 23.2 337
846.56 10.77 90.21 130.000 16.41 1.29 24.9 23.1 338
849.06 10.77 90.21 130.000 17.34 -0.55 24.9 23.3 339
851.56 10.77 90.21 130.000 17.34 1.29 25.0 23.2 340
854.07 10.77 90.21 130.000 16.41 1.29 32.5 23.0 341
856.56 10.77 90.21 130.000 16.41 -0.56 29.1 23.1 342
859.07 10.77 90.21 130.000 18.28 1.28 28.8 23.1 343
861.57 10.77 90.21 130.000 18.28 3.13 24.8 23.3 344
864.06 10.77 90.21 130.000 18.26 -0.54 24.9 23.2 345
866.56 10.77 65.17 130.000 17.34 1.29 34.3 23.3 346
869.07 10.77 65.17 130.000 16.41 1.30 25.0 23.4 347
871.56 10.75 65.17 130.000 16.41 -0.57 24.9 23.4 348
874.07 10.75 65.17 130.000 19.20 -0.54 25.0 23.3 349
876.57 10.75 47.30 130.000 16.41 -0.55 24.8 23.2 350
879.07 10.75 116.69 130.000 16.41 -0.56 24.9 23.2 351
881.57 10.80 116.69 130.000 16.40 -0.55 24.8 23.5 352
884.06 10.80 116.69 130.000 16.40 -0.55 24.9 23.4 353
886.57 10.80 116.69 130.000 16.40 1.29 24.7 23.2 354
889.06 10.80 116.69 130.000 17.34 -0.55 24.8 23.3 355
891.57 10.80 116.69 130.000 17.33 1.28 24.6 23.1 356
894.07 10.80 116.69 130.000 16.41 -0.55 25.1 23.1 357
896.56 10.80 116.69 130.000 17.34 1.29 24.5 23.1 358
899.07 10.80 116.69 130.000 17.34 1.31 25.1 23.5 359
901.56 10.80 116.69 130.000 16.41 -0.57 25.1 23.5 360
904.07 10.80 116.69 130.000 17.35 1.28 28.9 23.4 361
906.57 10.80 116.69 130.000 17.33 1.30 24.8 23.3 362
909.06 10.80 116.69 130.000 16.41 1.29 24.7 23.3 363
911.56 10.80 116.69 130.000 16.40 -0.55 24.9 23.4 364
914.07 10.80 82.63 130.000 16.41 -0.57 24.8 23.3 365
916.57 10.82 82.63 130.000 16.39 -0.56 24.9 23.2 366
919.06 10.82 82.63 130.000 16.41 -0.57 24.9 23.4 367
921.56 10.82 82.63 130.000 17.35 1.30 34.7 23.2 368
924.07 10.82 249.75 130.000 16.40 -0.57 24.7 23.2 369
926.56 10.82 249.75 130.000 18.28 -0.55 24.9 23.3 370
929.06 10.76 249.75 130.000 17.33 -0.56 24.6 23.1 371
931.56 10.76 249.75 130.000 17.35 -0.57 24.8 23.4 372
934.07 10.76 249.75 130.000 16.41 -0.56 26.6 23.6 373
936.56 10.76 249.75 130.000 17.35 -0.56 25.0 23.3 374
939.07 10.76 249.75 130.000 16.41 -0.55 27.7 23.3 375
941.56 10.76 249.75 130.000 18.27 1.29 28.6 23.3 376
944.07 10.76 249.75 130.000 16.42 1.28 24.8 23.6 377
946.57 10.76 249.75 130.000 17.33 -0.55 25.0 23.5 378
949.07 10.76 249.75 130.000 18.27 -0.53 28.7 22.8 379
951.57 10.76 249.75 130.000 16.41 1.28 24.8 23.0 380
954.06 10.76 249.75 130.000 17.34 -0.55 29.0 23.0 381
956.56 10.76 249.75 130.000 17.33 -0.54 24.7 23.4 382
959.07 10.76 171.20 130.000 17.34 -0.54 25.0 23.4 383
961.57 10.76 171.20 130.000 16.41 -0.56 24.9 23.5 384
964.07 10.74 171.20 130.000 19.21 -0.57 25.0 23.2 385
966.56 10.74 171.20 130.000 17.35 -0.55 35.1 23.2 386
969.06 10.74 117.79 130.000 18.27 -0.55 29.3 23.6 387
971.56 10.74 249.08 130.000 16.41 1.27 25.0 23.5 388
974.07 10.81 261.40 130.000 17.34 1.27 24.9 23.5 389
976.57 10.81 261.40 130.000 17.34 -0.55 25.0 23.2 390
979.06 10.81 261.40 130.000 16.40 -0.54 24.6 23.5 391
981.56 10.81 261.40 130.000 16.41 -0.58 25.0 23.7 392
984.06 10.81 261.40 130.000 16.41 -0.57 24.8 23.3 393
986.56 10.81 261.40 130.000 17.34 -0.54 25.0 23.1 394
989.07 10.81 261.40 130.000 17.33 -0.54 24.9 23.1 395
991.57 10.81 261.40 130.000 17.34 -0.54 24.9 23.5 396
994.07 10.81 261.40 130.000 17.34 1.30 24.9 23.3 397
996.57 10.81 261.40 130.000 16.41 -0.54 28.6 23.2 398
999.06 10.81 261.40 130.000 16.40 -0.54 25.0 23.6 399
1001.56 10.81 261.40 130.000 16.41 -0.54 24.9 23.3 400
1004.07 10.81 261.40 130.000 16.41 1.29 29.1 23.4 401
1006.56 10.81 179.23 130.000 16.42 1.31 37.2 23.2 402
1009.06 10.82 179.23 130.000 16.41 1.29 24.8 23.1 403
1011.56 10.82 179.23 130.000 18.28 -0.56 35.0 23.4 404
1014.06 10.82 179.23 130.000 16.41 1.30 44.4 23.3 405
1016.56 10.82 176.73 130.000 18.28 -0.55 24.7 23.7 406
1019.06 10.82 243.07 130.000 16.41 1.25 22.9 23.5 407
1021.57 10.77 243.07 130.000 17.33 -0.55 24.8 23.4 408
1024.07 10.77 243.07 130.000 17.33 -0.55 24.7 23.7 409
1026.56 10.77 243.07 130.000 16.41 -0.57 25.0 23.7 410
1029.07 10.77 243.07 130.000 17.36 -0.57 24.6 23.3 411
1031.57 10.77 243.07 130.000 16.41 -0.54 24.7 23.3 412
1034.06 10.77 243.07 130.000 17.35 -0.55 28.3 23.2 413
1036.57 10.77 243.07 130.000 17.35 1.28 28.5 23.2 414
1039.06 10.77 243.07 130.000 17.34 -0.54 24.7 23.4 415
1041.56 10.77 243.07 130.000 16.41 1.29 24.6 23.1 416
1044.07 10.77 243.07 130.000 16.41 1.29 28.9 23.2 417
1046.57 10.77 243.07 130.000 18.27 -0.55 24.8 23.2 418
1049.06 10.77 243.07 130.000 16.41 -0.54 24.8 23.5 419
1051.57 10.77 167.11 130.000 16.40 -0.53 24.8 23.6 420
1054.07 10.77 167.11 130.000 16.40 1.29 25.0 23.4 421
1056.57 10.74 167.11 130.000 16.41 -0.56 24.8 23.2 422
1059.06 10.74 167.11 130.000 16.41 -0.58 24.8 23.6 423
1061.57 10.74 115.26 130.000 16.41 1.29 32.9 23.1 424
1064.07 10.74 153.09 130.000 17.33 1.28 23.0 23.4 425
1066.57 10.81 153.09 130.000 17.34 -0.56 24.9 23.5 426
1069.06 10.81 153.09 130.000 17.34 -0.54 25.0 23.6 427
1071.56 10.81 153.09 130.000 17.34 -0.55 24.6 23.5 428
1074.06 10.81 153.09 130.000 17.34 -0.55 27.2 23.3 429
1076.57 10.81 153.09 130.000 16.41 1.28 27.5 23.0 430
1079.06 10.81 153.09 130.000 17.34 -0.55 25.0 23.2 431
1081.57 10.81 153.09 130.000 17.35 3.15 32.3 23.0 432
1084.06 10.81 153.09 130.000 17.35 -0.56 25.0 23.4 433
1086.56 10.81 153.09 130.000 17.34 1.29 24.9 23.2 434
1089.07 10.81 153.09 130.000 16.41 -0.53 24.9 23.3 435
1091.56 10.81 153.09 130.000 16.42 -0.57 24.9 23.3 436
1094.06 10.81 153.09 130.000 16.42 -0.57 29.1 23.2 437
1096.56 10.81 153.09 130.000 18.27 1.29 25.0 23.2 438
1099.07 10.81 106.89 130.000 16.40 -0.56 24.9 23.2 439
1101.56 10.84 106.89 130.000 17.34 1.30 25.0 23.6 440
1104.07 10.84 106.89 130.000 16.41 -0.55 35.6 23.3 441
1106.56 10.84 106.89 130.000 17.35 1.28 24.8 23.7 442
1109.06 10.84 75.03 130.000 16.40 -0.54 24.7 23.5 443
1111.56 10.83 96.12 130.000 16.41 3.13 24.8 23.3 444
1114.07 10.83 96.12 130.000 16.41 3.14 24.3 23.4 445
1116.56 10.83 96.12 130.000 17.33 -0.53 24.8 23.3 446
1119.07 10.83 96.12 130.000 16.41 -0.55 26.7 23.4 447
1121.56 10.83 96.12 130.000 16.41 -0.57 27.9 23.2 448
1124.07 10.83 96.12 130.000 16.41 1.29 28.0 23.1 449
1126.56 10.83 96.12 130.000 18.26 1.30 24.9 23.6 450
1129.06 10.83 96.12 130.000 17.34 1.29 25.1 23.5 451
1131.57 10.83 96.12 130.000 17.35 -0.56 24.9 23.4 452
1134.07 10.83 96.12 130.000 17.34 -0.55 25.0 23.5 453
1136.57 10.83 96.12 130.000 16.40 -0.54 29.1 23.1 454
1139.06 10.83 96.12 130.000 16.40 1.29 24.5 23.6 455
1141.56 10.83 96.12 130.000 17.34 3.13 25.0 23.2 456
1144.06 10.83 69.15 130.000 16.40 1.31 25.0 23.2 457
1146.56 10.83 69.15 130.000 18.28 -0.55 24.8 23.3 458
1149.06 10.79 69.15 130.000 16.41 1.29 24.9 23.3 459
1151.56 10.79 69.15 130.000 17.34 -0.54 24.9 23.3 460
1154.07 10.79 49.95 130.000 17.33 3.14 24.9 23.6 461
1156.57 10.79 45.78 130.000 17.34 -0.53 24.7 23.2 462
1159.06 10.79 77.54 130.000 16.41 -0.53 24.3 23.6 463
1161.56 10.79 77.54 130.000 17.34 1.29 24.8 23.4 464
1164.07 10.79 77.54 130.000 17.34 1.29 24.7 23.3 465
1166.56 10.79 77.54 130.000 17.35 1.27 24.8 23.3 466
1169.07 10.79 77.54 130.000 18.26 -0.57 25.0 23.3 467
1171.57 10.79 77.54 130.000 16.41 -0.57 25.1 23.1 468
1174.06 10.79 77.54 130.000 17.34 -0.56 24.9 23.5 469
1176.56 10.79 77.54 130.000 17.34 3.13 24.9 23.3 470
1179.07 10.79 77.54 130.000 16.41 1.29 24.7 23.3 471
1181.57 10.79 77.54 130.000 17.34 -0.54 24.6 23.3 472
1184.06 10.79 77.54 130.000 16.40 -0.57 28.8 23.5 473
1186.57 10.79 77.54 130.000 16.42 -0.57 29.5 23.3 474
1189.06 10.79 77.54 130.000 18.27 -0.54 29.0 23.2 475
1191.56 10.79 56.67 130.000 17.34 -0.56 24.8 23.4 476
1194.06 10.83 56.67 130.000 16.41 3.14 48.0 23.5 477
1196.57 10.83 56.67 130.000 17.34 1.28 25.1 23.4 478
1199.07 10.83 56.67 130.000 17.34 -0.55 25.1 23.2 479
1201.57 10.83 450.16 130.000 16.41 -0.56 22.8 23.2 480
1204.06 10.82 450.16 130.000 16.40 -0.56 25.0 23.6 481
1206.57 10.82 450.16 130.000 16.40 1.30 24.7 23.4 482
1209.07 10.82 450.16 130.000 16.41 -0.55 24.9 23.3 483
1211.56 10.82 450.16 130.000 16.41 1.29 24.8 23.4 484
1214.07 10.82 450.16 130.000 17.34 1.30 30.2 23.4 485
1216.56 10.82 450.16 130.000 17.34 -0.54 25.3 23.2 486
1219.07 10.82 450.16 130.000 17.35 -0.55 24.8 23.2 487
1221.57 10.82 450.16 130.000 16.41 1.27 28.5 23.3 488
1224.07 10.82 450.16 130.000 17.34 -0.57 24.9 23.5 489
1226.56 10.82 450.16 130.000 17.34 -0.54 28.6 23.1 490
1229.06 10.82 450.16 130.000 16.40 -0.53 24.9 23.5 491
1231.56 10.82 450.16 130.000 20.14 1.31 24.9 23.5 492
1234.06 10.82 450.16 130.000 17.34 1.29 28.8 23.3 493
1236.57 10.82 304.96 130.000 16.41 -0.55 37.3 23.1 494
1239.06 10.82 304.96 130.000 16.41 -0.55 24.8 23.7 495
1241.57 10.78 304.96 130.000 17.35 1.28 24.8 23.4 496
1244.06 10.78 304.96 130.000 16.41 -0.54 24.9 23.5 497
1246.56 10.78 207.02 130.000 17.34 1.28 25.0 23.4 498
1249.06 10.78 150.60 130.000 17.34 1.28 24.8 23.3 499
1251.57 10.79 147.30 130.000 17.35 -0.57 23.4 23.4 500
1254.07 10.79 147.30 130.000 17.34 -0.55 25.0 23.3 501
1256.57 10.79 147.30 130.000 16.41 -0.56 24.8 23.2 502
1259.07 10.79 147.30 130.000 16.41 -0.55 24.6 23.3 503
1261.56 10.79 147.30 130.000 16.41 -0.58 28.1 23.3 504
1264.07 10.79 147.30 130.000 16.41 1.29 25.0 23.3 505
1266.57 10.79 147.30 130.000 17.34 -0.53 24.8 23.2 506
1269.07 10.79 147.30 130.000 16.41 -0.56 24.9 23.4 507
1271.57 10.79 147.30 130.000 16.41 -0.55 25.0 23.4 508
1274.07 10.79 147.30 130.000 16.41 -0.55 24.9 23.4 509
1276.56 10.79 147.30 130.000 17.34 -0.57 28.8 23.3 510
1279.06 10.79 147.30 130.000 17.35 -0.56 29.0 23.3 511
1281.57 10.79 147.30 130.000 17.35 -0.54 29.1 23.4 512
1284.06 10.79 103.17 130.000 16.41 1.28 24.8 23.4 513
1286.56 10.82 103.17 130.000 16.41 1.30 24.8 23.6 514
1289.06 10.82 103.17 130.000 18.28 -0.54 35.1 23.2 515
1291.56 10.82 103.17 130.000 17.35 -0.55 24.5 23.6 516
1294.07 10.82 211.21 130.000 17.35 -0.56 24.9 23.3 517
1296.57 10.82 211.21 130.000 18.27 1.28 24.7 23.4 518
1299.06 10.82 211.21 130.000 16.42 1.29 24.9 23.2 519
1301.56 10.82 211.21 130.000 16.41 -0.55 24.9 23.2 520
1304.07 10.82 211.21 130.000 17.35 -0.56 25.0 23.4 521
1306.56 10.82 211.21 130.000 16.40 -0.55 27.6 23.6 522
1309.07 10.82 211.21 130.000 16.40 -0.54 24.9 23.4 523
1311.57 10.82 211.21 130.000 17.34 -0.56 24.9 23.4 524
1314.07 10.82 211.21 130.000 17.33 -0.56 24.7 23.3 525
1316.57 10.82 211.21 130.000 16.41 -0.54 29.1 23.3 526
1319.06 10.82 211.21 130.000 16.41 -0.55 24.4 23.7 527
1321.56 10.82 211.21 130.000 16.41 -0.57 24.9 23.3 528
1324.07 10.82 211.21 130.000 16.41 1.28 29.0 23.0 529
1326.56 10.82 211.21 130.000 16.41 -0.56 25.1 23.3 530
1329.07 10.82 145.57 130.000 17.33 1.30 37.2 23.3 531
1331.57 10.82 145.57 130.000 16.40 -0.55 24.8 23.2 532
1334.06 10.76 145.57 130.000 17.34 -0.55 24.8 23.6 533
1336.57 10.76 145.57 130.000 16.41 1.28 34.9 23.2 534
1339.06 10.76 100.71 130.000 16.41 -0.56 24.8 23.5 535
1341.56 10.76 79.66 130.000 16.40 3.13 24.7 23.2 536
1344.06 10.77 99.91 130.000 16.41 -0.55 24.7 23.6 537
1346.56 10.77 99.91 130.000 17.34 -0.55 24.9 23.5 538
1349.07 10.77 99.91 130.000 16.42 -0.55 24.8 23.4 539
1351.57 10.77 99.91 130.000 17.35 -0.54 24.9 23.2 540
1354.06 10.77 99.91 130.000 17.35 -0.56 24.8 23.5 541
1356.57 10.77 99.91 130.000 16.41 -0.56 24.8 23.4 542
1359.07 10.77 99.91 130.000 16.40 -0.54 24.8 23.4 543
1361.57 10.77 99.91 130.000 18.27 1.30 24.8 23.8 544
1364.06 10.77 99.91 130.000 17.34 1.30 24.9 23.2 545
1366.57 10.77 99.91 130.000 16.40 -0.55 29.0 23.2 546
1369.06 10.77 99.91 130.000 16.41 1.26 24.7 23.3 547
1371.56 10.77 99.91 130.000 18.27 -0.55 24.8 23.2 548
1374.07 10.77 99.91 130.000 18.27 -0.55 29.3 23.3 549
1376.57 10.77 71.57 130.000 17.34 1.28 24.7 23.2 550
1379.07 10.82 71.57 130.000 16.41 -0.55 25.1 23.5 551
1381.57 10.82 71.57 130.000 17.34 1.28 35.5 23.0 552
1384.07 10.82 71.57 130.000 17.34 1.30 34.6 23.1 553
1386.56 10.82 183.82 130.000 17.34 1.29 24.9 23.5 554
1389.07 10.81 625.45 130.000 18.28 -0.57 24.6 23.2 555
1391.56 10.81 625.45 130.000 16.41 -0.57 24.7 23.3 556
1394.07 10.81 625.45 130.000 16.41 1.29 26.5 23.5 557
1396.57 10.81 625.45 130.000 18.27 1.31 24.7 23.4 558
1399.06 10.81 625.45 130.000 17.34 -0.53 24.8 23.3 559
1401.56 10.81 625.45 130.000 16.41 1.30 24.9 23.3 560
1404.07 10.81 625.45 130.000 16.40 -0.54 28.4 23.0 561
1406.56 10.81 625.45 130.000 17.35 -0.55 25.1 23.4 562
1409.07 10.81 625.45 130.000 16.41 1.28 25.0 23.4 563
1411.56 10.81 625.45 130.000 16.41 -0.55 24.6 23.2 564
1414.07 10.81 625.45 130.000 17.33 1.30 24.8 23.4 565
1416.57 10.81 625.45 130.000 16.40 -0.56 29.0 23.2 566
1419.06 10.81 625.45 130.000 17.32 1.30 24.9 23.4 567
1421.56 10.81 422.03 130.000 19.19 1.28 24.8 23.3 568
1424.06 10.81 422.03 130.000 16.41 1.27 24.8 23.5 569
1426.57 10.76 422.03 130.000 17.34 1.29 25.1 23.3 570
1429.07 10.76 422.03 130.000 16.40 -0.54 24.9 23.0 571
1431.56 10.76 285.22 130.000 16.41 1.29 25.1 23.3 572
1434.06 10.76 215.57 130.000 16.40 1.29 22.7 23.2 573
1436.57 10.77 215.57 130.000 17.34 1.31 25.1 23.3 574
1439.06 10.77 215.57 130.000 16.40 1.29 25.3 23.4 575
1441.56 10.77 215.57 130.000 16.41 3.13 25.0 23.3 576
1444.07 10.77 215.57 130.000 17.34 -0.55 29.4 22.9 577
1446.56 10.77 215.57 130.000 17.35 1.29 24.9 23.4 578
1449.06 10.77 215.57 130.000 18.27 -0.56 28.4 23.3 579
1451.56 10.77 215.57 130.000 16.41 -0.56 24.8 23.3 580
1454.07 10.77 215.57 130.000 16.41 -0.56 25.0 23.4 581
1456.56 10.77 215.57 130.000 17.34 -0.57 24.6 23.5 582
1459.07 10.77 215.57 130.000 18.28 -0.54 24.6 23.2 583
1461.56 10.77 215.57 130.000 16.41 -0.56 25.0 23.7 584
1464.06 10.77 215.57 130.000 16.41 -0.57 24.9 23.2 585
1466.56 10.77 215.57 130.000 16.41 1.30 24.9 23.3 586
1469.07 10.77 148.54 130.000 16.41 1.28 24.9 23.2 587
1471.56 10.83 148.54 130.000 17.34 -0.54 36.1 23.3 588
1474.07 10.83 148.54 130.000 18.26 1.30 35.3 23.3 589
1476.57 10.83 148.54 130.000 16.40 -0.55 34.6 23.4 590
1479.06 10.83 346.95 130.000 16.40 -0.56 24.8 23.4 591
1481.56 10.82 267.87 130.000 17.35 1.30 25.0 23.3 592
1484.07 10.82 267.87 130.000 16.40 1.29 25.0 23.4 593
1486.56 10.82 267.87 130.000 17.35 -0.55 24.6 23.4 594
1489.07 10.82 267.87 130.000 16.41 3.12 24.7 23.6 595
1491.56 10.82 267.87 130.000 16.41 -0.54 24.9 23.3 596
1494.07 10.82 267.87 130.000 19.21 -0.55 27.8 23.4 597
1496.57 10.82 267.87 130.000 16.40 1.30 24.5 23.3 598
1499.07 10.82 267.87 130.000 17.33 -0.56 24.7 23.3 599
1501.57 10.82 267.87 130.000 16.42 -0.55 28.8 23.6 600
1504.06 10.82 267.87 130.000 17.35 -0.57 25.3 23.3 601
1506.57 10.82 267.87 130.000 16.42 1.28 25.1 23.4 602
1509.06 10.82 267.87 130.000 16.41 1.26 24.6 23.3 603
1511.56 10.82 267.87 130.000 16.41 1.29 24.7 23.4 604
1514.06 10.82 183.61 130.000 17.34 -0.54 34.3 23.7 605
1516.56 10.82 183.61 130.000 17.34 -0.56 24.8 23.3 606
1519.06 10.76 183.61 130.000 16.41 1.26 35.4 23.3 607
1521.57 10.76 183.61 130.000 18.27 1.28 24.9 23.4 608
1524.06 10.76 126.28 130.000 16.40 1.30 24.7 23.3 609
1526.56 10.76 126.28 130.000 16.41 1.29 24.7 23.2 610
1529.07 10.76 126.28 130.000 17.34 -0.55 25.0 23.3 611
1531.56 10.76 126.28 130.000 16.42 -0.56 24.8 23.3 612
1534.07 10.76 126.28 130.000 16.41 -0.56 26.3 23.3 613
1536.57 10.76 126.28 130.000 17.34 -0.55 24.8 23.2 614
1539.06 10.76 126.28 130.000 17.34 -0.57 24.8 23.3 615
1541.56 10.76 126.28 130.000 16.40 1.29 24.7 23.2 616
1544.07 10.76 126.28 130.000 16.41 -0.53 28.4 23.4 617
1546.56 10.76 126.28 130.000 17.33 1.31 25.1 23.2 618
1549.07 10.76 126.28 130.000 19.21 -0.55 28.9 23.0 619
1551.57 10.76 126.28 130.000 16.41 1.28 24.9 23.2 620
1554.07 10.76 126.28 130.000 16.41 -0.55 25.0 23.6 621
1556.57 10.76 126.28 130.000 16.41 -0.56 29.1 23.1 622
1559.07 10.76 126.28 130.000 18.28 -0.56 25.2 23.3 623
1561.56 10.76 87.75 130.000 18.27 -0.54 24.6 23.2 624
1564.07 10.81 87.75 130.000 16.40 -0.55 48.0 23.0 625
1566.56 10.81 87.75 130.000 17.34 -0.55 24.9 23.3 626
1569.06 10.81 87.75 130.000 18.27 -0.54 34.3 23.4 627
1571.57 10.81 185.09 130.000 16.41 1.29 24.8 23.1 628
1574.07 10.80 185.09 130.000 16.40 -0.56 25.0 23.4 629
1576.56 10.80 185.09 130.000 17.33 -0.53 24.9 23.9 630
1579.06 10.80 185.09 130.000 16.40 1.29 25.5 23.3 631
1581.57 10.80 185.09 130.000 16.40 -0.55 24.8 23.4 632
1584.06 10.80 185.09 130.000 16.41 -0.56 24.8 23.6 633
1586.57 10.80 185.09 130.000 16.42 -0.56 28.2 23.3 634
1589.07 10.80 185.09 130.000 16.41 -0.56 24.9 23.3 635
1591.57 10.80 185.09 130.000 16.40 -0.54 25.0 23.4 636
1594.06 10.80 185.09 130.000 16.41 -0.55 24.6 23.7 637
1596.57 10.80 185.09 130.000 16.41 1.28 29.0 23.4 638
1599.07 10.80 185.09 130.000 18.27 -0.56 25.1 23.2 639
1601.56 10.80 185.09 130.000 18.25 -0.56 29.3 23.2 640
1604.07 10.80 185.09 130.000 17.34 -0.57 25.0 23.2 641
1606.57 10.80 128.17 130.000 16.41 -0.55 37.0 23.3 642
1609.06 10.80 128.17 130.000 16.41 1.28 25.0 23.2 643
1611.56 10.77 128.17 130.000 17.33 1.27 36.1 23.2 644
1614.06 10.77 128.17 130.000 17.34 1.28 24.8 23.4 645
1616.56 10.77 89.13 130.000 18.26 -0.53 25.3 23.3 646
1619.06 10.77 444.05 130.000 16.40 1.24 22.7 23.3 647
1621.56 10.76 444.05 130.000 17.34 1.30 24.8 23.2 648
1624.07 10.76 444.05 130.000 16.41 1.28 24.7 23.2 649
1626.56 10.76 444.05 130.000 17.33 1.29 24.7 23.3 650
1629.06 10.76 444.05 130.000 18.28 -0.56 27.5 23.3 651
1631.56 10.76 444.05 130.000 18.27 -0.56 25.1 23.1 652
1634.07 10.76 444.05 130.000 17.35 -0.55 24.8 23.3 653
1636.57 10.76 444.05 130.000 16.41 -0.55 28.5 23.3 654
1639.07 10.76 444.05 130.000 18.27 -0.57 25.0 23.3 655
1641.57 10.76 444.05 130.000 17.33 -0.55 24.6 23.3 656
1644.06 10.76 444.05 130.000 17.34 -0.56 24.9 23.3 657
1646.56 10.76 444.05 130.000 17.34 1.27 24.6 23.2 658
1649.07 10.76 444.05 130.000 16.41 1.29 24.8 23.4 659
1651.57 10.76 444.05 130.000 17.35 -0.56 25.0 23.2 660
1654.06 10.76 300.97 130.000 18.27 -0.56 37.0 23.4 661
1656.56 10.79 300.97 130.000 16.41 1.31 36.5 23.5 662
1659.06 10.79 300.97 130.000 16.40 1.28 35.5 23.4 663
1661.57 10.79 300.97 130.000 18.27 -0.55 24.6 23.4 664
1664.06 10.79 204.46 130.000 16.40 -0.56 24.9 23.3 665
1666.56 10.79 165.93 130.000 17.34 -0.57 23.7 23.0 666
1669.06 10.74 165.93 130.000 17.34 1.29 24.3 23.4 667
1671.57 10.74 165.93 130.000 16.41 1.28 24.8 23.3 668
1674.06 10.74 165.93 130.000 16.41 -0.54 24.9 23.2 669
1676.56 10.74 165.93 130.000 17.33 -0.56 24.9 23.5 670
1679.06 10.74 165.93 130.000 16.41 1.29 27.9 23.3 671
1681.56 10.74 165.93 130.000 18.28 1.30 24.9 23.2 672
1684.07 10.74 165.93 130.000 16.40 1.28 28.5 23.1 673
1686.56 10.74 165.93 130.000 17.34 1.29 24.9 23.5 674
1689.07 10.74 165.93 130.000 20.13 -0.55 28.7 23.3 675
1691.56 10.74 165.93 130.000 17.34 -0.56 24.8 23.3 676
1694.06 10.74 165.93 130.000 16.41 1.31 24.6 23.3 677
1696.57 10.74 165.93 130.000 16.40 3.14 28.9 23.1 678
1699.06 10.74 115.58 130.000 17.34 -0.57 33.8 23.2 679
1701.56 10.74 115.58 130.000 16.40 -0.56 37.2 23.3 680
1704.07 10.73 115.58 130.000 16.41 -0.56 35.8 23.4 681
1706.57 10.73 115.58 130.000 16.40 -0.56 24.9 23.4 682
1709.07 10.73 80.86 130.000 17.34 1.30 25.7 23.3 683
1711.56 10.73 80.86 130.000 17.34 1.29 25.1 23.2 684
1714.07 10.80 80.86 130.000 19.20 -0.54 24.9 23.3 685
1716.57 10.80 80.86 130.000 16.41 1.30 24.8 23.2 686
1719.07 10.80 80.86 130.000 17.34 -0.54 24.9 23.5 687
1721.57 10.80 80.86 130.000 18.27 -0.56 25.0 23.2 688
1724.07 10.80 80.86 130.000 17.34 -0.55 25.0 23.6 689
1726.56 10.80 80.86 130.000 16.40 1.31 28.3 23.2 690
1729.06 10.80 80.86 130.000 16.41 -0.53 24.9 23.5 691
1731.57 10.80 80.86 130.000 17.34 1.29 24.8 23.2 692
1734.07 10.80 80.86 130.000 16.42 -0.55 24.8 23.3 693
1736.57 10.80 80.86 130.000 16.41 -0.55 24.9 23.4 694
1739.06 10.80 80.86 130.000 16.41 -0.56 24.9 23.6 695
1741.56 10.80 80.86 130.000 17.34 1.29 24.8 23.3 696
1744.07 10.80 80.86 130.000 18.27 3.13 29.3 23.5 697
1746.57 10.80 57.47 130.000 16.40 -0.55 24.7 23.4 698
1749.06 10.82 57.47 130.000 17.33 -0.55 25.0 23.4 699
1751.57 10.82 57.47 130.000 16.40 1.31 24.9 23.3 700
1754.07 10.82 57.47 130.000 16.40 -0.55 24.9 23.3 701
1756.57 10.82 41.91 130.000 16.40 -0.56 24.9 23.1 702
1759.07 10.82 82.31 130.000 17.34 1.30 24.7 23.6 703
1761.57 10.75 82.31 130.000 17.33 -0.55 24.9 23.2 704
1764.06 10.75 82.31 130.000 17.34 -0.57 24.7 23.3 705
1766.56 10.75 82.31 130.000 16.40 1.30 24.7 23.3 706
1769.07 10.75 82.31 130.000 17.34 -0.55 25.0 23.2 707
1771.56 10.75 82.31 130.000 17.33 1.30 24.7 23.1 708
1774.07 10.75 82.31 130.000 19.20 -0.56 24.9 23.7 709
1776.57 10.75 82.31 130.000 16.40 -0.55 24.8 23.3 710
1779.07 10.75 82.31 130.000 17.34 -0.57 28.5 23.2 711
1781.56 10.75 82.31 130.000 17.33 -0.58 24.8 23.2 712
1784.07 10.75 82.31 130.000 17.34 -0.55 24.9 23.2 713
1786.56 10.75 82.31 130.000 16.41 -0.54 24.5 23.3 714
1789.07 10.75 82.31 130.000 17.34 1.30 28.9 23.2 715
1791.56 10.75 59.91 130.000 17.33 -0.55 25.0 23.3 716
1794.07 10.75 59.91 130.000 16.41 1.29 49.1 23.2 717
1796.56 10.73 59.91 130.000 16.41 -0.57 24.8 23.3 718
1799.07 10.73 59.91 130.000 16.41 1.27 34.7 23.1 719
1801.57 10.73 43.77 130.000 16.40 -0.53 24.9 23.4 720
1804.06 10.73 605.41 130.000 17.34 1.28 24.9 23.3 721
1806.56 10.79 605.41 130.000 16.41 1.28 24.3 23.1 722
1809.07 10.79 605.41 130.000 16.41 -0.56 25.6 23.2 723
1811.57 10.79 605.41 130.000 17.33 1.30 26.7 23.3 724
1814.06 10.79 605.41 130.000 17.34 -0.55 24.9 23.4 725
1816.56 10.79 605.41 130.000 17.35 3.12 24.7 23.5 726
1819.07 10.79 605.41 130.000 18.27 -0.55 24.8 23.6 727
1821.57 10.79 605.41 130.000 16.41 -0.55 24.9 23.4 728
1824.06 10.79 605.41 130.000 17.34 -0.57 25.1 23.7 729
1826.56 10.79 605.41 130.000 16.40 1.31 24.8 23.2 730
1829.06 10.79 605.41 130.000 17.33 -0.55 25.0 23.2 731
1831.57 10.79 605.41 130.000 16.40 1.29 25.0 23.2 732
1834.07 10.79 605.41 130.000 16.41 -0.56 24.8 23.0 733
1836.56 10.79 605.41 130.000 17.33 -0.55 25.0 23.2 734
1839.06 10.79 408.40 130.000 16.42 -0.55 25.0 23.5 735
1841.57 10.81 408.40 130.000 17.34 1.32 24.8 23.4 736
1844.06 10.81 408.40 130.000 17.34 -0.56 35.2 23.4 737
1846.56 10.81 408.40 130.000 16.41 1.30 24.8 23.3 738
1849.06 10.81 309.09 130.000 17.34 -0.55 24.9 23.3 739
1851.57 10.81 450.39 130.000 16.40 -0.54 24.9 23.2 740
1854.06 10.76 450.39 130.000 16.40 -0.55 25.2 23.9 741
1856.56 10.76 450.39 130.000 17.35 3.13 24.8 23.2 742
1859.06 10.76 450.39 130.000 16.41 -0.55 26.5 23.3 743
1861.56 10.76 450.39 130.000 17.33 -0.55 25.0 23.3 744
1864.07 10.76 450.39 130.000 18.27 3.13 28.1 23.3 745
1866.56 10.76 450.39 130.000 16.40 -0.54 25.0 23.2 746
1869.06 10.76 450.39 130.000 16.41 -0.54 24.8 23.3 747
1871.56 10.76 450.39 130.000 18.27 1.30 24.6 23.5 748
1874.07 10.76 450.39 130.000 17.33 1.28 32.9 23.1 749
1876.56 10.76 450.39 130.000 16.42 -0.56 24.7 23.5 750
1879.06 10.76 450.39 130.000 18.27 -0.54 24.8 23.4 751
1881.56 10.76 450.39 130.000 16.42 -0.54 24.9 23.3 752
1884.06 10.76 305.33 130.000 17.34 -0.55 24.7 23.2 753
1886.56 10.76 305.33 130.000 16.41 1.28 24.9 23.3 754
1889.06 10.75 305.33 130.000 16.40 -0.57 24.7 23.4 755
1891.57 10.75 305.33 130.000 16.41 -0.57 24.6 23.2 756
1894.07 10.75 207.42 130.000 17.35 -0.53 24.7 23.4 757
1896.56 10.75 207.42 130.000 16.41 -0.56 25.0 23.2 758
1899.07 10.80 207.42 130.000 17.34 -0.55 25.1 23.4 759
1901.57 10.80 207.42 130.000 16.41 1.29 25.3 23.4 760
1904.06 10.80 207.42 130.000 18.27 -0.53 24.9 23.6 761
1906.56 10.80 207.42 130.000 16.41 1.28 24.9 23.5 762
1909.06 10.80 207.42 130.000 16.40 1.28 24.8 23.2 763
1911.56 10.80 207.42 130.000 18.27 1.29 24.9 23.3 764
1914.07 10.80 207.42 130.000 16.41 3.13 28.3 23.0 765
1916.56 10.80 207.42 130.000 16.39 -0.55 25.1 23.2 766
1919.06 10.80 207.42 130.000 16.41 1.30 29.0 23.0 767
1921.56 10.80 207.42 130.000 17.34 1.29 24.7 23.4 768
1924.07 10.80 207.42 130.000 16.41 -0.55 29.2 23.2 769
1926.57 10.80 207.42 130.000 16.41 -0.57 25.0 23.2 770
1929.06 10.80 207.42 130.000 17.34 -0.55 24.7 23.6 771
1931.57 10.80 141.86 130.000 17.35 -0.56 24.9 23.2 772
1934.06 10.80 141.86 130.000 17.34 -0.55 36.2 23.3 773
1936.57 10.80 141.86 130.000 16.41 -0.56 35.2 23.3 774
1939.06 10.80 141.86 130.000 17.34 -0.55 24.9 23.5 775
1941.57 10.80 98.14 130.000 16.41 -0.54 24.9 23.4 776
1944.07 10.80 115.65 130.000 16.41 1.27 25.2 23.6 777
1946.56 10.73 115.65 130.000 16.41 -0.56 24.8 23.4 778
1949.07 10.73 115.65 130.000 18.28 -0.55 26.1 23.3 779
1951.56 10.73 115.65 130.000 18.28 -0.54 24.6 23.6 780
1954.06 10.73 115.65 130.000 16.40 3.14 27.5 23.3 781
1956.57 10.73 115.65 130.000 16.41 1.27 28.0 23.2 782
1959.06 10.73 115.65 130.000 16.40 -0.56 24.6 23.7 783
1961.57 10.73 115.65 130.000 16.41 1.29 24.8 23.2 784
1964.06 10.73 115.65 130.000 16.40 -0.55 24.8 23.4 785
1966.56 10.73 115.65 130.000 17.34 1.28 25.0 23.3 786
1969.07 10.73 115.65 130.000 16.41 -0.53 24.7 23.4 787
1971.57 10.73 115.65 130.000 16.40 -0.55 25.0 23.1 788
1974.07 10.73 115.65 130.000 16.41 -0.56 25.1 23.4 789
1976.57 10.73 82.13 130.000 16.40 1.29 25.1 23.3 790
1979.07 10.73 82.13 130.000 17.34 -0.55 36.5 23.4 791
1981.57 10.74 82.13 130.000 16.41 -0.58 25.0 23.2 792
1984.06 10.74 82.13 130.000 16.41 -0.56 24.8 23.5 793
1986.57 10.74 82.13 130.000 17.34 1.29 24.8 23.3 794
1989.06 10.74 161.20 130.000 17.34 -0.55 25.1 23.2 795
1991.56 10.79 161.20 130.000 18.28 1.30 25.0 23.3 796
1994.07 10.79 161.20 130.000 16.41 -0.55 24.9 23.3 797
1996.56 10.79 161.20 130.000 16.40 -0.54 24.7 23.3 798
1999.06 10.79 161.20 130.000 16.41 1.31 29.3 23.3 799
2001.56 10.79 161.20 130.000 18.28 1.29 25.0 23.3 800
2004.07 10.79 161.20 130.000 16.40 1.29 28.2 23.4 801
2006.56 10.79 161.20 130.000 16.41 -0.54 24.8 23.3 802
2009.07 10.79 161.20 130.000 16.41 -0.56 24.8 23.4 803
2011.56 10.79 161.20 130.000 16.40 -0.55 24.8 23.2 804
2014.07 10.79 161.20 130.000 17.35 -0.54 29.0 23.1 805
2016.56 10.79 161.20 130.000 17.34 1.28 24.4 23.4 806
2019.07 10.79 161.20 130.000 18.27 -0.55 24.8 23.6 807
2021.56 10.79 161.20 130.000 17.34 -0.57 25.2 23.7 808
2024.07 10.79 112.35 130.000 17.34 -0.55 24.7 23.4 809
2026.56 10.80 112.35 130.000 18.27 1.31 24.7 23.4 810
2029.06 10.80 112.35 130.000 17.34 1.30 24.7 23.2 811
2031.56 10.80 112.35 130.000 17.34 1.29 24.7 23.4 812
2034.06 10.80 330.85 130.000 17.34 1.28 27.3 23.2 813
2036.57 10.80 244.94 130.000 16.41 1.29 23.0 23.3 814
2039.06 10.75 244.94 130.000 18.26 1.29 25.0 23.3 815
2041.56 10.75 244.94 130.000 16.41 -0.54 25.4 23.2 816
2044.07 10.75 244.94 130.000 16.41 1.30 26.3 23.2 817
2046.56 10.75 244.94 130.000 16.40 -0.52 25.0 23.3 818
2049.07 10.75 244.94 130.000 16.41 -0.54 24.8 23.4 819
2051.56 10.75 244.94 130.000 17.34 -0.54 25.1 23.1 820
2054.07 10.75 244.94 130.000 18.27 -0.54 24.9 23.4 821
2056.57 10.75 244.94 130.000 17.34 1.29 25.0 23.4 822
2059.06 10.75 244.94 130.000 17.34 -0.57 24.8 23.6 823
2061.56 10.75 244.94 130.000 16.41 3.13 24.8 23.2 824
2064.07 10.75 244.94 130.000 17.35 -0.55 29.0 23.3 825
2066.56 10.75 244.94 130.000 16.40 -0.54 24.9 23.2 826
2069.07 10.75 168.39 130.000 16.41 -0.54 25.0 23.5 827
2071.56 10.75 168.39 130.000 17.35 1.29 24.9 23.6 828
2074.06 10.75 168.39 130.000 16.41 -0.54 24.8 23.5 829
2076.57 10.75 168.39 130.000 18.28 -0.57 35.0 23.2 830
2079.06 10.75 168.39 130.000 16.39 -0.55 25.2 23.2 831
2081.57 10.75 381.60 130.000 16.41 -0.53 24.9 23.8 832
2084.06 10.80 411.23 130.000 17.34 -0.56 24.8 23.3 833
2086.57 10.80 411.23 130.000 16.41 -0.57 25.0 23.1 834
2089.06 10.80 411.23 130.000 16.40 -0.55 24.9 23.2 835
2091.56 10.80 411.23 130.000 18.27 1.29 27.4 23.3 836
2094.07 10.80 411.23 130.000 17.35 1.29 27.8 23.2 837
2096.56 10.80 411.23 130.000 17.33 -0.54 24.9 23.4 838
2099.07 10.80 411.23 130.000 16.41 -0.55 28.4 23.3 839
2101.57 10.80 411.23 130.000 16.41 1.28 24.8 23.5 840
2104.06 10.80 411.23 130.000 16.41 -0.54 25.0 23.7 841
2106.56 10.80 411.23 130.000 17.34 1.30 24.9 23.4 842
2109.07 10.80 411.23 130.000 16.41 -0.55 25.0 22.9 843
2111.56 10.80 411.23 130.000 16.42 -0.55 24.9 23.4 844
2114.07 10.80 411.23 130.000 16.41 1.28 33.1 23.1 845
2116.57 10.80 279.15 130.000 16.41 -0.54 36.9 23.6 846
2119.07 10.78 279.15 130.000 16.40 1.30 36.9 23.4 847
2121.57 10.78 279.15 130.000 16.39 -0.55 24.9 23.5 848
2124.07 10.78 279.15 130.000 16.40 -0.55 24.9 23.3 849
2126.57 10.78 189.95 130.000 17.34 -0.55 25.2 23.3 850
2129.07 10.78 189.95 130.000 17.33 -0.54 25.0 23.2 851
2131.56 10.75 189.95 130.000 17.34 -0.57 24.6 23.4 852
2134.07 10.75 189.95 130.000 16.41 -0.56 24.8 23.3 853
2136.57 10.75 189.95 130.000 18.27 -0.55 24.6 23.3 854
2139.07 10.75 189.95 130.000 17.34 -0.56 25.1 23.4 855
2141.57 10.75 189.95 130.000 18.29 -0.54 24.8 23.4 856
2144.06 10.75 189.95 130.000 17.33 -0.56 24.9 23.6 857
2146.56 10.75 189.95 130.000 16.41 1.27 25.0 23.3 858
2149.07 10.75 189.95 130.000 16.40 -0.55 24.7 23.5 859
2151.56 10.75 189.95 130.000 16.41 -0.58 29.1 23.2 860
2154.07 10.75 189.95 130.000 17.34 -0.55 29.2 23.0 861
2156.56 10.75 189.95 130.000 17.34 -0.55 24.8 23.3 862
2159.07 10.75 189.95 130.000 17.35 -0.54 29.3 23.2 863
2161.57 10.75 189.95 130.000 18.26 -0.55 24.7 23.3 864
2164.06 10.75 130.15 130.000 17.34 -0.56 24.5 24.0 865
2166.56 10.77 130.15 130.000 16.40 1.29 24.7 23.2 866
2169.07 10.77 130.15 130.000 16.41 -0.55 24.5 23.4 867
2171.57 10.77 130.15 130.000 17.34 -0.56 24.7 23.4 868
2174.06 10.77 236.06 130.000 16.41 -0.57 24.6 23.5 869
2176.56 10.80 233.67 130.000 16.40 -0.55 24.9 23.4 870
2179.06 10.80 233.67 130.000 17.34 -0.54 24.8 23.4 871
2181.56 10.80 233.67 130.000 16.41 3.13 25.0 23.3 872
2184.07 10.80 233.67 130.000 17.35 -0.55 24.9 23.4 873
2186.56 10.80 233.67 130.000 17.33 1.32 24.9 23.6 874
2189.06 10.80 233.67 130.000 18.28 -0.55 28.1 23.2 875
2191.57 10.80 233.67 130.000 17.34 -0.55 24.8 23.3 876
2194.07 10.80 233.67 130.000 17.34 -0.55 24.6 23.1 877
2196.57 10.80 233.67 130.000 16.41 -0.54 28.7 23.3 878
2199.07 10.80 233.67 130.000 17.34 -0.55 24.7 23.5 879
2201.57 10.80 233.67 130.000 16.41 1.30 28.9 23.3 880
2204.07 10.80 233.67 130.000 17.34 -0.56 25.0 23.3 881
2206.56 10.80 233.67 130.000 16.41 -0.56 24.6 23.4 882
2209.07 10.80 160.90 130.000 18.27 -0.54 37.3 23.2 883
2211.56 10.78 160.90 130.000 17.34 -0.55 24.7 23.4 884
2214.06 10.78 160.90 130.000 17.34 -0.54 24.7 23.3 885
2216.56 10.78 160.90 130.000 18.28 -0.56 25.1 23.3 886
2219.07 10.78 111.16 130.000 18.27 1.29 31.9 23.0 887
2221.56 10.78 114.98 130.000 17.33 -0.55 23.2 23.3 888
2224.07 10.75 114.98 130.000 17.35 -0.56 24.5 23.3 889
2226.56 10.75 114.98 130.000 16.41 -0.57 24.9 23.6 890
2229.07 10.75 114.98 130.000 16.41 3.13 24.8 23.3 891
2231.56 10.75 114.98 130.000 17.34 -0.54 24.9 23.3 892
2234.07 10.75 114.98 130.000 17.33 -0.54 27.9 23.5 893
2236.57 10.75 114.98 130.000 16.40 -0.56 24.9 23.3 894
2239.07 10.75 114.98 130.000 17.33 1.29 24.8 23.3 895
2241.57 10.75 114.98 130.000 16.40 -0.56 24.8 23.8 896
2244.06 10.75 114.98 130.000 18.28 -0.57 24.7 23.3 897
2246.57 10.75 114.98 130.000 16.41 -0.57 29.4 23.3 898
2249.07 10.75 114.98 130.000 17.33 -0.57 29.0 23.2 899
2251.57 10.75 114.98 130.000 18.28 -0.54 25.0 23.5 900
2254.06 10.75 81.69 130.000 17.34 -0.55 24.8 23.3 901
2256.57 10.75 81.69 130.000 17.33 1.28 37.5 23.1 902
2259.06 10.75 81.69 130.000 16.41 1.29 24.8 23.2 903
2261.57 10.75 81.69 130.000 17.34 -0.56 24.8 23.3 904
2264.06 10.75 81.69 130.000 16.41 1.28 24.6 23.7 905
2266.57 10.75 146.06 130.000 17.34 -0.58 24.9 23.3 906
2269.07 10.77 146.06 130.000 16.40 -0.55 24.7 23.2 907
2271.57 10.77 146.06 130.000 16.41 1.28 24.7 23.3 908
2274.06 10.77 146.06 130.000 17.34 1.29 24.4 23.4 909
2276.56 10.77 146.06 130.000 18.27 1.27 24.6 23.2 910
2279.07 10.77 146.06 130.000 17.34 1.30 27.8 23.4 911
2281.56 10.77 146.06 130.000 18.27 -0.57 25.0 23.1 912
2284.07 10.77 146.06 130.000 16.41 1.27 24.6 23.4 913
2286.56 10.77 146.06 130.000 17.35 1.28 24.9 23.4 914
2289.06 10.77 146.06 130.000 18.27 -0.55 28.8 23.4 915
2291.56 10.77 146.06 130.000 17.34 1.31 24.7 23.2 916
2294.07 10.77 146.06 130.000 16.40 -0.55 33.2 23.3 917
2296.57 10.77 146.06 130.000 18.27 1.29 25.2 23.3 918
2299.06 10.77 146.06 130.000 16.41 1.29 24.9 23.7 919
2301.56 10.77 102.24 130.000 17.34 1.28 24.9 23.5 920
2304.07 10.77 102.24 130.000 17.34 -0.56 24.8 23.2 921
2306.56 10.71 102.24 130.000 16.40 1.27 24.9 23.4 922
2309.07 10.71 102.24 130.000 18.28 -0.56 25.0 23.4 923
2311.56 10.71 63.12 130.000 16.41 1.27 24.6 23.4 924
2314.07 10.71 551.46 130.000 16.41 -0.55 24.8 23.9 925
2316.57 10.72 551.46 130.000 16.41 -0.57 25.1 23.2 926
2319.06 10.72 551.46 130.000 17.35 -0.54 24.5 23.4 927
2321.56 10.72 551.46 130.000 17.34 3.13 24.8 23.2 928
2324.07 10.72 551.46 130.000 16.41 1.29 29.9 23.2 929
2326.56 10.72 551.46 130.000 16.41 -0.56 24.9 23.3 930
2329.06 10.72 551.46 130.000 16.40 3.14 25.0 23.3 931
2331.57 10.72 551.46 130.000 18.27 -0.53 24.9 23.6 932
2334.07 10.72 551.46 130.000 16.41 -0.55 25.2 23.5 933
2336.57 10.72 551.46 130.000 16.41 -0.55 24.7 23.2 934
2339.06 10.72 551.46 130.000 16.41 1.29 24.7 23.4 935
2341.56 10.72 551.46 130.000 17.35 3.12 24.9 23.3 936
2344.07 10.72 551.46 130.000 17.34 -0.54 25.0 23.5 937
2346.56 10.72 551.46 130.000 17.34 1.29 25.0 23.2 938
2349.07 10.72 372.57 130.000 18.28 -0.56 36.8 23.1 939
2351.56 10.78 372.57 130.000 16.41 -0.56 25.0 23.2 940
2354.07 10.78 372.57 130.000 16.41 1.29 45.9 23.3 941
2356.56 10.78 372.57 130.000 16.41 -0.57 24.7 23.3 942
2359.07 10.78 570.39 130.000 18.28 -0.56 24.9 23.6 943
2361.57 10.79 407.07 130.000 17.34 -0.56 24.8 23.4 944
2364.06 10.79 407.07 130.000 17.34 -0.55 25.0 23.4 945
2366.56 10.79 407.07 130.000 16.41 1.29 24.7 23.3 946
2369.07 10.79 407.07 130.000 17.35 -0.55 25.2 23.3 947
2371.56 10.79 407.07 130.000 16.40 -0.54 24.9 23.3 948
2374.07 10.79 407.07 130.000 19.21 -0.54 24.4 23.4 949
2376.57 10.79 407.07 130.000 16.41 -0.55 25.0 23.1 950
2379.06 10.79 407.07 130.000 17.34 1.29 24.6 23.6 951
2381.56 10.79 407.07 130.000 17.34 3.12 24.8 23.3 952
2384.07 10.79 407.07 130.000 17.34 -0.54 24.8 23.7 953
2386.56 10.79 407.07 130.000 17.33 -0.55 24.9 23.4 954
2389.06 10.79 407.07 130.000 18.27 -0.57 28.9 23.3 955
2391.56 10.79 407.07 130.000 16.41 1.29 24.9 23.2 956
2394.06 10.79 276.42 130.000 17.34 1.28 24.8 23.3 957
2396.56 10.79 276.42 130.000 17.34 3.13 24.8 23.4 958
2399.07 10.74 276.42 130.000 16.41 1.27 24.7 23.3 959
2401.56 10.74 276.42 130.000 17.33 -0.54 25.0 23.4 960
2404.06 10.74 188.16 130.000 17.34 3.13 26.7 22.9 961
2406.56 10.74 188.16 130.000 16.40 1.29 24.8 23.3 962
2409.06 10.75 188.16 130.000 16.40 1.29 23.9 23.2 963
2411.57 10.75 188.16 130.000 16.41 -0.56 24.8 23.4 964
2414.07 10.75 188.16 130.000 17.34 -0.55 24.8 23.3 965
2416.57 10.75 188.16 130.000 16.41 -0.54 25.1 23.4 966
2419.06 10.75 188.16 130.000 17.35 -0.56 24.7 23.5 967
2421.56 10.75 188.16 130.000 16.41 -0.56 25.0 23.4 968
2424.07 10.75 188.16 130.000 16.41 -0.55 28.4 23.2 969
2426.56 10.75 188.16 130.000 16.41 -0.55 24.9 23.4 970
2429.07 10.75 188.16 130.000 18.27 -0.56 29.0 23.2 971
2431.57 10.75 188.16 130.000 16.40 -0.56 24.9 23.3 972
2434.07 10.75 188.16 130.000 17.33 -0.57 25.0 23.3 973
2436.57 10.75 188.16 130.000 17.35 -0.55 25.0 23.2 974
2439.06 10.75 188.16 130.000 17.34 -0.56 30.1 23.3 975
2441.56 10.75 129.01 130.000 18.28 -0.55 24.7 23.4 976
2444.06 10.80 129.01 130.000 17.35 1.29 24.9 23.4 977
2446.56 10.80 129.01 130.000 16.41 1.27 25.1 23.2 978
2449.06 10.80 129.01 130.000 19.20 -0.56 24.7 23.2 979
2451.57 10.80 716.54 130.000 17.35 -0.56 24.9 23.4 980
2454.07 10.78 451.10 130.000 17.33 -0.57 24.7 23.1 981
2456.57 10.78 451.10 130.000 17.34 1.29 25.0 23.4 982
2459.06 10.78 451.10 130.000 16.40 -0.55 24.8 23.4 983
2461.56 10.78 451.10 130.000 16.41 -0.57 24.9 23.2 984
2464.07 10.78 451.10 130.000 16.41 1.29 27.8 23.0 985
2466.56 10.78 451.10 130.000 16.41 -0.56 24.8 23.2 986
2469.07 10.78 451.10 130.000 16.41 -0.55 25.1 23.3 987
2471.56 10.78 451.10 130.000 17.35 1.29 25.0 23.3 988
2474.07 10.78 451.10 130.000 18.27 -0.56 28.8 23.2 989
2476.56 10.78 451.10 130.000 16.41 -0.56 25.0 23.8 990
2479.06 10.78 451.10 130.000 16.40 -0.55 29.2 23.3 991
2481.56 10.78 451.10 130.000 17.35 -0.55 25.0 23.3 992
2484.06 10.78 451.10 130.000 16.41 -0.56 25.2 23.2 993
2486.56 10.78 305.83 130.000 17.34 1.28 25.1 23.4 994
2489.06 10.78 305.83 130.000 17.35 1.28 25.3 23.3 995
2491.56 10.74 305.83 130.000 17.34 -0.56 24.9 23.3 996
2494.06 10.74 305.83 130.000 18.27 1.30 24.6 23.4 997
2496.56 10.74 207.76 130.000 16.40 1.27 34.2 23.3 998
2499.06 10.74 207.76 130.000 16.41 -0.55 24.4 23.4 999
2501.56 10.76 207.76 130.000 16.41 1.29 24.8 23.6 1000
2504.07 10.76 207.76 130.000 16.40 1.30 24.9 23.3 1001
2506.56 10.76 207.76 130.000 16.40 1.28 25.0 23.4 1002
2509.07 10.76 207.76 130.000 19.21 -0.56 27.2 23.1 1003
2511.57 10.76 207.76 130.000 16.41 -0.56 24.8 23.2 1004
2514.07 10.76 207.76 130.000 16.41 -0.56 25.0 23.6 1005
2516.57 10.76 207.76 130.000 17.34 -0.55 24.7 23.5 1006
2519.07 10.76 207.76 130.000 16.40 -0.55 24.7 23.4 1007
2521.56 10.76 207.76 130.000 17.34 -0.57 24.9 23.3 1008
2524.07 10.76 207.76 130.000 16.41 1.28 24.9 23.3 1009
2526.56 10.76 207.76 130.000 17.35 1.30 24.8 23.4 1010
2529.06 10.76 207.76 130.000 18.28 -0.56 28.9 23.2 1011
2531.56 10.76 207.76 130.000 18.26 -0.55 24.8 23.4 1012
2534.07 10.76 142.05 130.000 17.34 1.30 25.1 23.2 1013
2536.56 10.81 142.05 130.000 16.41 -0.55 24.9 23.4 1014
2539.07 10.81 142.05 130.000 17.34 -0.54 45.8 23.2 1015
2541.56 10.81 142.05 130.000 16.40 -0.57 43.7 23.3 1016
2544.06 10.81 185.90 130.000 16.41 -0.56 24.7 23.6 1017
2546.57 10.81 185.90 130.000 16.39 -0.55 25.0 23.2 1018
2549.07 10.74 185.90 130.000 18.27 -0.55 24.7 23.5 1019
2551.56 10.74 185.90 130.000 16.40 1.30 25.0 23.5 1020
2554.07 10.74 185.90 130.000 16.41 -0.55 28.6 22.9 1021
2556.56 10.74 185.90 130.000 16.41 -0.54 25.1 23.2 1022
2559.07 10.74 185.90 130.000 16.41 -0.56 24.9 23.4 1023
2561.56 10.74 185.90 130.000 17.35 -0.56 25.0 23.3 1024
2564.07 10.74 185.90 130.000 17.34 -0.57 24.8 23.4 1025
2566.57 10.74 185.90 130.000 16.41 -0.55 24.8 23.5 1026
2569.07 10.74 185.90 130.000 16.41 -0.56 25.1 23.5 1027
2571.56 10.74 185.90 130.000 16.40 -0.56 24.9 23.2 1028
2574.07 10.74 185.90 130.000 16.41 -0.56 25.0 23.5 1029
2576.57 10.74 185.90 130.000 16.41 -0.54 25.0 23.5 1030
2579.07 10.74 128.73 130.000 17.33 1.29 25.0 23.1 1031
2581.56 10.74 128.73 130.000 18.27 -0.55 24.8 23.2 1032
2584.07 10.72 128.73 130.000 16.42 -0.57 24.7 23.7 1033
2586.56 10.72 128.73 130.000 16.41 -0.56 24.8 23.4 1034
2589.07 10.72 89.51 130.000 17.34 -0.54 24.8 23.2 1035
2591.57 10.72 364.99 130.000 17.33 -0.54 24.6 23.5 1036
2594.06 10.80 364.99 130.000 16.40 1.30 24.7 23.5 1037
2596.56 10.80 364.99 130.000 17.34 -0.55 24.7 23.3 1038
2599.07 10.80 364.99 130.000 17.34 1.29 27.7 23.2 1039
2601.57 10.80 364.99 130.000 16.41 -0.58 24.9 23.2 1040
2604.07 10.80 364.99 130.000 17.34 -0.54 24.7 24.0 1041
2606.56 10.80 364.99 130.000 16.40 1.28 24.9 23.2 1042
2609.07 10.80 364.99 130.000 20.14 -0.54 28.5 23.3 1043
2611.57 10.80 364.99 130.000 16.41 -0.56 25.0 23.4 1044
2614.06 10.80 364.99 130.000 17.34 -0.56 28.8 23.0 1045
2616.56 10.80 364.99 130.000 17.34 3.13 25.0 23.4 1046
2619.07 10.80 364.99 130.000 16.40 1.30 24.8 23.5 1047
2621.57 10.80 364.99 130.000 16.40 1.28 25.1 23.1 1048
2624.06 10.80 364.99 130.000 16.41 -0.57 25.1 23.6 1049
2626.56 10.80 248.26 130.000 16.41 -0.57 24.9 23.2 1050
2629.06 10.80 248.26 130.000 16.40 1.31 25.0 23.5 1051
2631.57 10.80 248.26 130.000 17.34 -0.56 24.6 23.3 1052
2634.06 10.80 248.26 130.000 16.41 -0.56 24.9 23.4 1053
2636.57 10.80 169.32 130.000 17.35 -0.56 25.3 23.3 1054
2639.06 10.80 140.88 130.000 19.21 1.29 24.8 23.2 1055
2641.57 10.75 140.88 130.000 16.40 1.28 24.7 23.4 1056
2644.07 10.75 140.88 130.000 17.34 -0.54 25.0 23.8 1057
2646.56 10.75 140.88 130.000 16.41 1.28 24.9 23.5 1058
2649.07 10.75 140.88 130.000 17.34 -0.57 25.0 23.4 1059
2651.57 10.75 140.88 130.000 16.41 -0.53 25.0 23.3 1060
2654.06 10.75 140.88 130.000 17.35 -0.55 24.9 23.3 1061
2656.57 10.75 140.88 130.000 17.34 1.27 28.8 23.1 1062
2659.06 10.75 140.88 130.000 16.39 -0.55 24.8 23.5 1063
2661.56 10.75 140.88 130.000 16.41 -0.56 25.1 23.3 1064
2664.06 10.75 140.88 130.000 16.42 -0.55 28.9 23.2 1065
2666.57 10.75 140.88 130.000 16.40 -0.56 28.8 23.2 1066
2669.06 10.75 140.88 130.000 16.41 -0.56 29.1 23.4 1067
2671.57 10.75 98.96 130.000 17.33 1.29 24.7 23.2 1068
2674.06 10.75 98.96 130.000 16.40 -0.54 24.8 23.4 1069
2676.57 10.75 98.96 130.000 17.33 1.30 35.8 23.1 1070
2679.07 10.75 98.96 130.000 17.34 -0.57 24.8 23.5 1071
2681.56 10.75 69.80 130.000 17.34 -0.56 25.1 23.6 1072
2684.06 10.75 138.99 130.000 16.41 1.29 22.8 23.7 1073
2686.56 10.80 138.99 130.000 16.41 1.28 24.7 23.3 1074
2689.07 10.80 138.99 130.000 17.34 1.30 24.9 23.4 1075
2691.57 10.80 138.99 130.000 16.41 -0.54 24.8 23.4 1076
2694.06 10.80 138.99 130.000 17.34 -0.55 27.0 23.0 1077
2696.57 10.80 138.99 130.000 16.41 1.27 27.8 23.0 1078
2699.07 10.80 138.99 130.000 17.34 -0.55 24.9 23.4 1079
2701.57 10.80 138.99 130.000 16.41 -0.54 28.2 23.3 1080
2704.06 10.80 138.99 130.000 17.34 -0.58 24.9 23.3 1081
2706.56 10.80 138.99 130.000 17.34 1.28 24.9 23.3 1082
2709.07 10.80 138.99 130.000 17.34 -0.55 24.5 23.3 1083
2711.57 10.80 138.99 130.000 16.40 -0.54 25.0 23.3 1084
2714.06 10.80 138.99 130.000 18.28 -0.57 24.7 23.3 1085
2716.56 10.80 138.99 130.000 18.28 -0.55 24.7 23.3 1086
2719.06 10.80 97.49 130.000 17.33 -0.55 24.8 23.3 1087
2721.57 10.80 97.49 130.000 16.40 1.31 24.9 23.5 1088
2724.07 10.80 97.49 130.000 18.28 1.29 35.5 23.3 1089
2726.56 10.80 97.49 130.000 16.42 -0.56 25.0 23.7 1090
2729.07 10.80 329.41 130.000 17.35 -0.55 24.8 23.7 1091
2731.56 10.80 329.41 130.000 17.34 -0.56 22.8 23.1 1092
2734.07 10.75 329.41 130.000 16.41 1.28 24.7 23.2 1093
2736.56 10.75 329.41 130.000 17.34 -0.57 24.9 23.5 1094
2739.07 10.75 329.41 130.000 16.41 -0.56 24.7 23.2 1095
2741.57 10.75 329.41 130.000 17.33 -0.56 27.6 23.3 1096
2744.06 10.75 329.41 130.000 16.41 -0.54 24.8 23.2 1097
2746.56 10.75 329.41 130.000 16.40 1.31 24.9 23.3 1098
2749.06 10.75 329.41 130.000 17.34 1.29 24.9 23.3 1099
2751.56 10.75 329.41 130.000 17.34 3.14 24.9 23.1 1100
2754.07 10.75 329.41 130.000 19.21 1.29 33.1 23.5 1101
2756.57 10.75 329.41 130.000 17.34 -0.56 24.8 23.4 1102
2759.07 10.75 329.41 130.000 17.34 -0.55 29.2 23.3 1103
2761.57 10.75 329.41 130.000 16.41 -0.57 25.0 23.4 1104
2764.06 10.75 224.30 130.000 16.41 1.28 25.2 23.2 1105
2766.56 10.75 224.30 130.000 16.41 -0.55 25.1 23.2 1106
2769.06 10.75 224.30 130.000 16.41 -0.56 25.1 23.4 1107
2771.57 10.75 224.30 130.000 16.40 1.29 24.9 23.1 1108
2774.06 10.75 224.30 130.000 17.33 -0.56 25.2 23.3 1109
2776.56 10.75 175.70 130.000 17.35 -0.58 24.7 23.5 1110
2779.07 10.80 374.53 130.000 17.34 -0.56 24.9 23.2 1111
2781.56 10.80 374.53 130.000 17.34 -0.56 24.7 23.1 1112
2784.07 10.80 374.53 130.000 17.34 -0.56 24.7 23.4 1113
2786.56 10.80 374.53 130.000 17.32 -0.54 24.5 23.3 1114
2789.06 10.80 374.53 130.000 16.41 -0.57 24.7 23.5 1115
2791.57 10.80 374.53 130.000 18.28 -0.57 24.9 23.3 1116
2794.06 10.80 374.53 130.000 17.34 -0.56 24.5 23.4 1117
2796.57 10.80 374.53 130.000 18.28 -0.55 24.9 23.4 1118
2799.07 10.80 374.53 130.000 16.40 -0.54 24.9 23.4 1119
2801.57 10.80 374.53 130.000 16.41 1.28 29.1 23.5 1120
2804.06 10.80 374.53 130.000 18.27 -0.54 24.9 23.3 1121
2806.57 10.80 374.53 130.000 16.41 -0.56 29.1 23.3 1122
2809.06 10.80 374.53 130.000 17.35 -0.56 29.0 23.3 1123
2811.56 10.80 254.79 130.000 16.40 1.28 24.9 23.3 1124
2814.07 10.80 254.79 130.000 17.34 1.28 36.6 23.6 1125
2816.57 10.80 254.79 130.000 16.41 -0.56 24.9 23.4 1126
2819.07 10.80 254.79 130.000 18.27 -0.57 25.0 23.4 1127
2821.57 10.80 130.25 130.000 16.41 -0.54 24.9 23.6 1128
2824.06 10.80 463.77 130.000 16.42 -0.55 24.8 23.7 1129
2826.56 10.77 410.73 130.000 16.41 -0.56 24.4 23.3 1130
2829.07 10.77 410.73 130.000 16.41 1.27 25.5 23.4 1131
2831.57 10.77 410.73 130.000 17.34 -0.54 25.1 23.2 1132
2834.06 10.77 410.73 130.000 16.41 1.27 27.5 23.4 1133
2836.57 10.77 410.73 130.000 16.41 -0.55 27.8 23.5 1134
2839.06 10.77 410.73 130.000 16.41 -0.59 24.8 23.3 1135
2841.57 10.77 410.73 130.000 16.41 1.30 28.4 23.3 1136
2844.06 10.77 410.73 130.000 16.40 -0.55 24.8 23.5 1137
2846.56 10.77 410.73 130.000 16.41 1.28 25.0 23.1 1138
2849.07 10.77 410.73 130.000 18.28 -0.56 28.9 23.3 1139
2851.57 10.77 410.73 130.000 18.27 -0.54 24.9 23.2 1140
2854.07 10.77 410.73 130.000 16.41 -0.56 24.9 23.3 1141
2856.57 10.77 410.73 130.000 18.28 -0.55 24.8 23.5 1142
2859.06 10.77 278.77 130.000 16.40 -0.57 24.9 23.2 1143
2861.56 10.76 278.77 130.000 16.41 -0.55 36.2 23.5 1144
2864.07 10.76 278.77 130.000 17.35 1.29 24.9 23.3 1145
2866.56 10.76 278.77 130.000 17.33 -0.54 24.8 23.5 1146
2869.07 10.76 521.46 130.000 16.41 -0.55 24.7 23.2 1147
2871.57 10.81 521.46 130.000 16.41 -0.57 24.9 23.3 1148
2874.06 10.81 521.46 130.000 16.41 -0.56 25.6 23.5 1149
2876.57 10.81 521.46 130.000 16.41 -0.55 29.4 23.1 1150
2879.06 10.81 521.46 130.000 16.41 -0.56 25.1 23.3 1151
2881.56 10.81 521.46 130.000 16.40 1.29 24.8 23.3 1152
2884.06 10.81 521.46 130.000 16.42 -0.56 24.8 23.4 1153
2886.56 10.81 521.46 130.000 16.41 1.29 24.9 23.3 1154
2889.06 10.81 521.46 130.000 17.35 1.28 29.0 23.1 1155
2891.56 10.81 521.46 130.000 16.40 1.30 24.9 23.3 1156
2894.07 10.81 521.46 130.000 17.34 1.30 24.9 23.4 1157
2896.57 10.81 521.46 130.000 18.28 1.31 24.7 23.4 1158
2899.06 10.81 521.46 130.000 16.41 1.28 24.9 23.3 1159
2901.57 10.81 521.46 130.000 16.41 1.28 25.0 23.3 1160
2904.07 10.81 352.54 130.000 17.34 -0.55 25.1 23.6 1161
2906.56 10.79 352.54 130.000 17.34 1.30 24.7 23.2 1162
2909.07 10.79 352.54 130.000 17.34 3.15 24.8 23.7 1163
2911.57 10.79 352.54 130.000 17.34 1.29 25.1 23.1 1164
2914.07 10.79 238.78 130.000 17.34 -0.55 24.9 23.7 1165
2916.57 10.79 168.36 130.000 16.41 -0.56 24.8 23.3 1166
2919.06 10.76 168.36 130.000 16.40 -0.55 24.8 23.7 1167
2921.56 10.76 168.36 130.000 16.40 -0.57 24.8 23.3 1168
2924.06 10.76 168.36 130.000 16.41 -0.57 24.9 23.4 1169
2926.56 10.76 168.36 130.000 18.27 -0.55 27.5 23.6 1170
2929.06 10.76 168.36 130.000 16.41 1.28 25.0 23.2 1171
2931.57 10.76 168.36 130.000 18.27 -0.54 24.7 23.1 1172
2934.06 10.76 168.36 130.000 16.41 1.28 24.9 23.2 1173
2936.56 10.76 168.36 130.000 18.26 -0.55 24.8 23.4 1174
2939.07 10.76 168.36 130.000 16.42 -0.56 28.9 23.1 1175
2941.57 10.76 168.36 130.000 17.34 1.27 28.9 23.2 1176
2944.07 10.76 168.36 130.000 16.41 1.29 24.6 23.3 1177
2946.56 10.76 168.36 130.000 17.34 -0.55 24.7 23.3 1178
2949.06 10.76 117.31 130.000 16.42 1.29 24.7 23.5 1179
2951.56 10.76 117.31 130.000 18.26 1.29 24.8 23.4 1180
2954.07 10.76 117.31 130.000 17.34 -0.55 24.9 23.5 1181
2956.56 10.76 117.31 130.000 17.34 -0.56 24.9 23.6 1182
2959.07 10.76 117.31 130.000 16.41 -0.59 24.8 23.3 1183
2961.57 10.76 82.02 130.000 18.27 1.28 22.9 23.3 1184
2964.06 10.77 82.02 130.000 16.40 1.29 25.0 23.3 1185
2966.57 10.77 82.02 130.000 16.42 -0.54 25.3 23.3 1186
2969.07 10.77 82.02 130.000 16.41 -0.55 24.7 23.3 1187
2971.56 10.77 82.02 130.000 16.41 -0.56 25.5 23.4 1188
2974.07 10.77 82.02 130.000 20.14 -0.55 24.9 23.2 1189
2976.57 10.77 82.02 130.000 16.41 1.28 28.2 23.4 1190
2979.07 10.77 82.02 130.000 18.28 -0.56 25.1 23.4 1191
2981.57 10.77 82.02 130.000 17.34 -0.55 24.7 23.3 1192
2984.06 10.77 82.02 130.000 16.41 -0.55 24.8 23.2 1193
2986.56 10.77 82.02 130.000 16.41 1.31 25.0 23.3 1194
2989.07 10.77 82.02 130.000 17.33 -0.55 25.0 23.6 1195
2991.57 10.77 82.02 130.000 17.34 -0.57 29.2 23.1 1196
2994.07 10.77 82.02 130.000 16.41 -0.55 24.9 23.2 1197
2996.56 10.77 58.26 130.000 17.35 -0.57 37.1 23.4 1198
2999.06 10.77 58.26 130.000 16.40 -0.56 37.0 23.2 1199
3001.56 10.71 58.26 130.000 16.40 -0.55 35.7 23.1 1200
3004.06 10.71 58.26 130.000 18.28 3.13 24.7 23.3 1201
3006.56 10.71 42.46 130.000 16.41 1.28 24.9 23.6 1202
3009.06 10.71 94.54 130.000 18.27 -0.56 25.0 23.3 1203
3011.56 10.74 94.54 130.000 17.34 -0.54 24.9 23.2 1204
3014.07 10.74 94.54 130.000 17.34 1.28 25.2 23.1 1205
3016.56 10.74 94.54 130.000 17.34 1.28 24.7 23.1 1206
3019.07 10.74 94.54 130.000 16.41 -0.55 24.7 23.2 1207
3021.56 10.74 94.54 130.000 16.41 -0.57 24.5 23.3 1208
3024.06 10.74 94.54 130.000 16.41 -0.56 24.8 23.3 1209
3026.56 10.74 94.54 130.000 16.40 -0.54 24.9 23.2 1210
3029.07 10.74 94.54 130.000 16.41 -0.56 25.0 23.3 1211
3031.57 10.74 94.54 130.000 17.34 -0.53 24.8 23.3 1212
3034.06 10.74 94.54 130.000 17.34 1.28 25.0 23.4 1213
3036.57 10.74 94.54 130.000 16.40 -0.54 28.8 23.3 1214
3039.06 10.74 94.54 130.000 17.33 -0.55 24.9 23.2 1215
3041.56 10.74 94.54 130.000 16.40 1.27 24.9 23.4 1216
3044.06 10.74 67.91 130.000 16.41 -0.56 24.8 23.2 1217
3046.57 10.81 67.91 130.000 16.42 1.30 24.9 23.4 1218
3049.07 10.81 67.91 130.000 16.41 -0.54 24.7 23.3 1219
3051.56 10.81 67.91 130.000 17.34 -0.55 24.7 23.3 1220
3054.06 10.81 833.57 130.000 17.34 -0.56 25.1 23.4 1221
3056.56 10.81 833.57 130.000 17.34 -0.56 25.0 23.4 1222
3059.07 10.81 833.57 130.000 18.27 -0.55 24.8 23.5 1223
3061.56 10.81 833.57 130.000 17.34 -0.54 24.9 23.2 1224
3064.06 10.81 833.57 130.000 16.41 3.14 27.3 23.2 1225
3066.56 10.81 833.57 130.000 17.34 1.29 27.4 23.3 1226
3069.06 10.81 833.57 130.000 16.41 1.27 34.3 22.9 1227
3071.56 10.81 833.57 130.000 17.34 3.12 28.3 23.1 1228
3074.07 10.81 833.57 130.000 18.27 -0.57 24.9 23.3 1229
3076.57 10.81 833.57 130.000 16.41 -0.54 24.8 23.5 1230
3079.07 10.81 833.57 130.000 16.41 -0.54 24.7 23.6 1231
3081.57 10.81 833.57 130.000 16.40 -0.55 24.8 23.4 1232
3084.06 10.81 833.57 130.000 18.27 -0.55 25.1 23.4 1233
3086.57 10.81 833.57 130.000 16.42 -0.54 29.1 23.2 1234
3089.06 10.81 560.44 130.000 16.41 -0.58 36.7 23.2 1235
3091.57 10.81 560.44 130.000 16.40 -0.56 25.0 24.0 1236
3094.07 10.74 560.44 130.000 17.33 -0.55 24.6 23.2 1237
3096.57 10.74 560.44 130.000 16.42 -0.56 24.8 23.7 1238
3099.07 10.74 377.31 130.000 17.34 1.30 25.5 23.4 1239
3101.57 10.74 264.24 130.000 17.34 -0.55 24.8 23.2 1240
3104.06 10.74 264.24 130.000 17.34 1.31 24.9 23.8 1241
3106.57 10.74 264.24 130.000 17.33 3.14 25.7 23.3 1242
3109.06 10.74 264.24 130.000 16.40 1.30 24.8 23.2 1243
3111.57 10.74 264.24 130.000 16.41 1.28 27.2 23.3 1244
3114.07 10.74 264.24 130.000 17.34 -0.56 25.0 23.4 1245
3116.56 10.74 264.24 130.000 17.33 1.29 25.0 23.3 1246
3119.07 10.74 264.24 130.000 17.33 -0.56 24.9 23.5 1247
3121.57 10.74 264.24 130.000 17.33 1.30 28.5 23.4 1248
3124.06 10.74 264.24 130.000 17.34 1.30 28.9 23.3 1249
3126.56 10.74 264.24 130.000 17.34 -0.56 33.2 23.4 1250
3129.07 10.74 264.24 130.000 16.41 1.28 32.7 23.5 1251
3131.56 10.74 264.24 130.000 16.42 -0.56 24.7 23.4 1252
3134.07 10.74 264.24 130.000 17.34 3.13 29.8 23.5 1253
3136.57 10.74 180.96 130.000 17.34 -0.54 24.9 23.3 1254
3139.06 10.79 180.96 130.000 17.34 1.28 24.7 23.4 1255
3141.56 10.79 180.96 130.000 16.41 -0.53 35.6 23.3 1256
3144.06 10.79 180.96 130.000 16.41 1.29 34.7 23.1 1257
3146.56 10.79 171.90 130.000 18.27 1.27 24.9 23.4 1258
3149.06 10.80 259.81 130.000 19.21 -0.56 24.9 23.8 1259
3151.56 10.80 259.81 130.000 18.27 1.28 25.0 23.5 1260
3154.07 10.80 259.81 130.000 19.21 -0.53 27.2 23.2 1261
3156.57 10.80 259.81 130.000 16.41 -0.56 24.9 23.5 1262
3159.06 10.80 259.81 130.000 16.41 1.30 27.8 23.4 1263
3161.57 10.80 259.81 130.000 17.33 1.29 28.4 23.3 1264
3164.06 10.80 259.81 130.000 16.41 -0.56 24.8 23.6 1265
3166.57 10.80 259.81 130.000 17.34 1.29 28.6 23.2 1266
3169.06 10.80 259.81 130.000 17.35 3.11 24.9 23.7 1267
3171.56 10.80 259.81 130.000 18.27 3.16 33.0 23.2 1268
3174.07 10.80 259.81 130.000 18.27 -0.56 29.2 23.3 1269
3176.56 10.80 259.81 130.000 17.34 3.14 24.8 23.3 1270
3179.07 10.80 259.81 130.000 16.41 -0.55 29.0 23.2 1271
3181.56 10.80 178.27 130.000 17.34 1.29 24.9 23.5 1272
3184.06 10.80 178.27 130.000 17.34 -0.57 36.8 23.5 1273
3186.56 10.76 178.27 130.000 16.41 -0.57 24.8 23.4 1274
3189.07 10.76 178.27 130.000 17.34 6.81 34.9 23.3 1275
3191.57 10.76 122.68 130.000 17.34 1.27 24.9 23.3 1276
3194.07 10.76 141.58 130.000 16.40 1.29 24.9 23.3 1277
3196.57 10.76 141.58 130.000 16.41 1.28 23.7 23.2 1278
3199.07 10.76 141.58 130.000 16.41 -0.54 25.8 23.2 1279
3201.57 10.76 141.58 130.000 18.27 1.29 24.8 23.5 1280
3204.06 10.76 141.58 130.000 17.35 -0.55 29.8 23.2 1281
3206.56 10.76 141.58 130.000 17.34 -0.56 30.7 23.2 1282
3209.07 10.76 141.58 130.000 16.42 1.29 31.7 23.2 1283
3211.56 10.76 141.58 130.000 16.41 -0.54 28.6 23.3 1284
3214.07 10.76 141.58 130.000 16.41 1.29 28.8 23.4 1285
3216.57 10.76 141.58 130.000 17.35 1.28 24.9 23.6 1286
3219.06 10.76 141.58 130.000 18.27 3.14 28.8 23.4 1287
3221.56 10.76 141.58 130.000 18.28 -0.55 25.2 23.5 1288
3224.06 10.76 141.58 130.000 16.40 3.13 24.9 23.2 1289
3226.56 10.76 141.58 130.000 16.41 -0.56 29.0 23.3 1290
3229.06 10.76 99.25 130.000 17.33 -0.54 24.7 23.4 1291
3231.56 10.79 99.25 130.000 16.41 -0.54 36.0 23.3 1292
3234.06 10.79 99.25 130.000 18.27 1.30 24.9 23.3 1293
3236.57 10.79 99.25 130.000 16.41 3.14 44.4 23.2 1294
3239.06 10.79 69.94 130.000 16.41 -0.55 25.1 23.5 1295
3241.57 10.79 69.94 130.000 16.41 1.29 23.4 23.3 1296
3244.06 10.74 69.94 130.000 17.34 1.32 24.5 23.5 1297
3246.56 10.74 69.94 130.000 18.26 -0.56 26.8 23.6 1298
3249.07 10.74 69.94 130.000 16.41 1.30 28.8 23.0 1299
3251.56 10.74 69.94 130.000 17.34 1.29 27.5 23.2 1300
3254.07 10.74 69.94 130.000 18.27 1.28 28.0 23.1 1301
3256.56 10.74 69.94 130.000 18.27 -0.54 24.8 23.3 1302
3259.07 10.74 69.94 130.000 17.35 1.27 24.9 23.4 1303
3261.57 10.74 69.94 130.000 17.34 1.27 28.6 23.1 1304
3264.06 10.74 69.94 130.000 16.41 1.29 24.6 23.3 1305
3266.56 10.74 69.94 130.000 16.41 -0.56 29.1 23.5 1306
3269.07 10.74 69.94 130.000 16.41 -0.56 29.0 23.5 1307
3271.57 10.74 69.94 130.000 17.34 1.30 24.7 23.3 1308
3274.06 10.74 50.24 130.000 16.40 -0.53 24.9 23.2 1309
3276.56 10.74 50.24 130.000 17.33 -0.56 24.8 23.3 1310
3279.06 10.73 50.24 130.000 16.41 -0.55 24.9 23.1 1311
3281.56 10.73 50.24 130.000 17.34 1.26 24.6 23.3 1312
3284.06 10.73 37.09 130.000 16.41 3.10 24.8 23.3 1313
3286.56 10.73 37.55 130.000 16.40 -0.56 22.9 23.4 1314
3289.06 10.79 75.06 130.000 16.42 1.29 24.8 23.5 1315
3291.57 10.79 75.06 130.000 16.41 1.29 25.1 23.3 1316
3294.07 10.79 75.06 130.000 18.27 -0.55 25.0 23.7 1317
3296.56 10.79 75.06 130.000 17.34 -0.54 24.8 23.3 1318
3299.07 10.79 75.06 130.000 17.35 1.27 24.8 23.4 1319
3301.57 10.79 75.06 130.000 18.26 1.31 24.6 23.6 1320
3304.07 10.79 75.06 130.000 17.34 1.31 28.8 23.3 1321
3306.56 10.79 75.06 130.000 17.34 1.30 25.0 23.3 1322
3309.07 10.79 75.06 130.000 16.40 1.28 32.7 22.6 1323
3311.56 10.79 75.06 130.000 16.41 -0.55 24.7 23.4 1324
3314.07 10.79 75.06 130.000 17.34 3.14 28.9 23.3 1325
3316.56 10.79 75.06 130.000 16.40 1.27 24.9 23.3 1326
3319.07 10.79 75.06 130.000 16.41 -0.58 24.9 23.3 1327
3321.57 10.79 55.01 130.000 17.33 1.28 37.1 23.3 1328
3324.07 10.79 55.01 130.000 16.41 -0.55 48.0 23.1 1329
3326.57 10.79 55.01 130.000 16.40 3.15 35.1 23.2 1330
3329.07 10.79 55.01 130.000 16.41 -0.56 24.8 23.5 1331
3331.56 10.79 444.71 130.000 16.41 -0.54 24.7 23.2 1332
3334.06 10.79 445.59 130.000 17.34 1.30 24.7 23.7 1333
3336.57 10.74 445.59 130.000 17.34 1.28 24.8 23.4 1334
3339.06 10.74 445.59 130.000 17.34 1.29 24.8 23.2 1335
3341.56 10.74 445.59 130.000 17.33 1.29 27.1 23.2 1336
3344.06 10.74 445.59 130.000 17.34 1.28 24.9 23.4 1337
3346.57 10.74 445.59 130.000 17.33 -0.57 24.9 23.3 1338
3349.06 10.74 445.59 130.000 16.41 -0.53 24.7 23.5 1339
3351.57 10.74 445.59 130.000 16.41 1.29 28.7 23.4 1340
3354.07 10.74 445.59 130.000 18.28 -0.55 24.9 23.6 1341
3356.57 10.74 445.59 130.000 16.41 -0.55 28.8 23.5 1342
3359.06 10.74 445.59 130.000 16.41 1.30 25.1 23.4 1343
3361.57 10.74 445.59 130.000 16.41 1.30 29.0 23.4 1344
3364.06 10.74 445.59 130.000 18.26 3.13 29.0 23.0 1345
3366.56 10.74 301.86 130.000 18.26 1.30 25.1 23.6 1346
3369.06 10.74 301.86 130.000 17.35 -0.56 24.9 23.4 1347
3371.56 10.76 301.86 130.000 17.34 -0.54 36.1 23.1 1348
3374.06 10.76 301.86 130.000 16.42 3.11 35.2 23.3 1349
3376.56 10.76 301.86 130.000 17.34 -0.54 24.8 23.3 1350
3379.07 10.76 360.15 130.000 17.34 -0.54 24.8 23.4 1351
3381.56 10.81 373.94 130.000 18.27 1.29 23.4 23.1 1352
3384.06 10.81 373.94 130.000 17.34 -0.55 25.0 23.3 1353
3386.56 10.81 373.94 130.000 16.41 -0.57 26.5 23.3 1354
3389.07 10.81 373.94 130.000 17.34 -0.55 26.8 23.2 1355
3391.57 10.81 373.94 130.000 16.41 -0.55 27.9 23.0 1356
3394.06 10.81 373.94 130.000 16.40 1.28 28.2 23.1 1357
3396.57 10.81 373.94 130.000 16.41 1.29 28.5 23.2 1358
3399.06 10.81 373.94 130.000 16.40 1.31 28.7 23.4 1359
3401.56 10.81 373.94 130.000 18.27 -0.57 24.9 23.4 1360
3404.06 10.81 373.94 130.000 17.34 -0.55 24.8 23.2 1361
3406.56 10.81 373.94 130.000 17.34 3.15 29.2 23.5 1362
3409.07 10.81 373.94 130.000 16.41 4.99 37.3 23.2 1363
3411.57 10.81 373.94 130.000 17.33 1.28 29.2 23.2 1364
3414.07 10.81 254.29 130.000 17.34 3.11 34.8 23.1 1365
3416.57 10.79 254.29 130.000 16.40 1.29 36.5 23.2 1366
3419.06 10.79 254.29 130.000 17.33 -0.54 24.7 23.0 1367
3421.56 10.79 254.29 130.000 18.27 -0.55 34.4 23.2 1368
3424.06 10.79 173.34 130.000 19.20 -0.54 24.3 23.3 1369
3426.57 10.79 163.75 130.000 16.40 1.30 21.1 23.4 1370
3429.06 10.76 163.75 130.000 16.41 -0.56 25.1 23.6 1371
3431.56 10.76 163.75 130.000 16.42 3.13 26.0 23.3 1372
3434.07 10.76 163.75 130.000 18.27 -0.55 26.7 23.2 1373
3436.56 10.76 163.75 130.000 16.41 1.28 24.7 23.3 1374
3439.07 10.76 163.75 130.000 17.33 -0.55 27.9 23.2 1375
3441.57 10.76 163.75 130.000 17.34 1.31 31.5 23.2 1376
3444.06 10.76 163.75 130.000 17.35 -0.54 35.9 23.0 1377
3446.56 10.76 163.75 130.000 17.35 1.32 28.8 23.5 1378
3449.07 10.76 163.75 130.000 17.35 1.28 33.0 23.3 1379
3451.56 10.76 163.75 130.000 16.41 -0.57 33.0 23.4 1380
3454.06 10.76 163.75 130.000 16.41 3.12 29.2 23.3 1381
3456.56 10.76 163.75 130.000 17.34 1.29 33.2 23.0 1382
3459.06 10.76 114.12 130.000 16.41 -0.55 29.3 23.5 1383
3461.56 10.76 114.12 130.000 16.41 -0.54 24.7 23.4 1384
3464.06 10.74 114.12 130.000 17.34 -0.56 35.8 23.2 1385
3466.57 10.74 114.12 130.000 17.34 4.98 45.3 23.1 1386
3469.07 10.74 114.12 130.000 17.35 -0.58 34.6 23.3 1387
3471.56 10.74 79.83 130.000 16.41 -0.56 22.7 23.4 1388
3474.06 10.78 79.83 130.000 17.34 1.30 23.0 23.4 1389
3476.57 10.78 79.83 130.000 18.27 -0.55 25.7 23.2 1390
3479.07 10.78 79.83 130.000 17.34 3.15 24.7 23.3 1391
3481.56 10.78 79.83 130.000 16.40 -0.55 26.8 23.7 1392
3484.07 10.78 79.83 130.000 16.40 -0.54 25.0 23.6 1393
3486.56 10.78 79.83 130.000 17.34 1.29 28.3 23.2 1394
3489.06 10.78 79.83 130.000 18.26 -0.56 28.4 23.0 1395
3491.57 10.78 79.83 130.000 16.41 1.29 24.9 24.0 1396
3494.07 10.78 79.83 130.000 17.35 -0.55 24.8 23.6 1397
3496.57 10.78 79.83 130.000 16.42 1.29 24.8 23.9 1398
3499.07 10.78 79.83 130.000 16.42 -0.56 24.7 23.4 1399
3501.57 10.78 79.83 130.000 16.41 -0.57 24.6 23.5 1400
3504.07 10.78 79.83 130.000 17.34 -0.55 29.1 23.5 1401
3506.57 10.78 56.80 130.000 17.34 -0.56 33.3 23.5 1402
3509.07 10.78 56.80 130.000 17.34 1.29 36.4 23.4 1403
3511.57 10.73 56.80 130.000 16.40 -0.55 24.8 23.6 1404
3514.07 10.73 56.80 130.000 17.34 -0.54 34.9 23.3 1405
3516.56 10.73 248.73 130.000 16.40 -0.56 24.8 23.6 1406
3519.06 10.73 233.07 130.000 16.41 1.28 23.1 22.9 1407
3521.57 10.74 233.07 130.000 16.41 1.28 24.8 23.4 1408
3524.06 10.74 233.07 130.000 16.41 -0.55 25.5 23.6 1409
3526.56 10.74 233.07 130.000 17.34 -0.58 24.9 23.3 1410
3529.06 10.74 233.07 130.000 16.41 1.30 27.5 23.2 1411
3531.57 10.74 233.07 130.000 16.41 -0.56 24.8 23.2 1412
3534.06 10.74 233.07 130.000 16.41 -0.54 24.8 23.2 1413
3536.57 10.74 233.07 130.000 16.41 3.13 28.6 23.1 1414
3539.07 10.74 233.07 130.000 16.41 -0.54 24.9 23.4 1415
3541.57 10.74 233.07 130.000 17.33 1.28 32.8 23.3 1416
3544.06 10.74 233.07 130.000 16.41 1.29 28.9 23.2 1417
3546.57 10.74 233.07 130.000 16.40 3.11 33.2 23.4 1418
3549.06 10.74 233.07 130.000 16.41 1.29 24.9 23.4 1419
3551.56 10.74 233.07 130.000 18.27 1.28 24.8 23.3 1420
3554.06 10.74 160.31 130.000 17.34 1.27 36.8 23.1 1421
3556.57 10.79 160.31 130.000 17.33 1.28 25.0 23.2 1422
3559.07 10.79 160.31 130.000 17.34 1.31 35.3 23.1 1423
3561.57 10.79 160.31 130.000 16.40 3.13 34.5 23.2 1424
3564.07 10.79 477.47 130.000 16.40 -0.56 23.5 23.1 1425
3566.57 10.78 477.47 130.000 16.41 -0.56 24.9 23.6 1426
3569.06 10.78 477.47 130.000 18.27 -0.54 24.5 23.4 1427
3571.56 10.78 477.47 130.000 18.27 1.29 25.1 23.3 1428
3574.06 10.78 477.47 130.000 18.27 1.27 27.4 23.3 1429
3576.56 10.78 477.47 130.000 16.41 -0.58 27.9 23.2 1430
3579.07 10.78 477.47 130.000 16.41 -0.54 31.1 23.4 1431
3581.57 10.78 477.47 130.000 16.41 -0.58 25.0 23.4 1432
3584.06 10.78 477.47 130.000 17.34 -0.56 28.6 23.2 1433
3586.56 10.78 477.47 130.000 17.32 -0.53 28.6 23.1 1434
3589.06 10.78 477.47 130.000 16.41 3.13 36.8 23.2 1435
3591.57 10.78 477.47 130.000 16.42 3.12 29.3 23.3 1436
3594.07 10.78 477.47 130.000 16.41 3.13 24.9 23.4 1437
3596.57 10.78 477.47 130.000 17.33 -0.55 33.2 23.4 1438
3599.06 10.78 323.02 130.000 17.35 1.28 24.7 23.8 1439
3601.56 10.78 323.02 130.000 17.34 1.27 25.2 23.4 1440
3604.07 10.74 323.02 130.000 16.41 -0.56 24.7 23.3 1441
3606.57 10.74 323.02 130.000 17.34 -0.54 25.0 24.0 1442
3609.06 10.74 218.99 130.000 18.27 -0.54 24.8 23.5 1443
3611.56 10.74 374.67 130.000 18.26 -0.55 24.7 23.9 1444
3614.07 10.74 374.67 130.000 16.40 3.12 22.4 23.1 1445
3616.56 10.74 374.67 130.000 16.40 1.28 26.0 23.1 1446
3619.06 10.74 374.67 130.000 18.27 1.28 24.8 23.3 1447
3621.56 10.74 374.67 130.000 17.34 1.30 24.6 23.2 1448
3624.07 10.74 374.67 130.000 17.34 1.30 31.0 23.3 1449
3626.57 10.74 374.67 130.000 17.34 -0.55 28.3 23.3 1450
3629.06 10.74 374.67 130.000 16.40 -0.54 28.5 23.2 1451
3631.56 10.74 374.67 130.000 17.35 1.27 25.1 23.3 1452
3634.07 10.74 374.67 130.000 16.41 1.29 24.7 23.6 1453
3636.57 10.74 374.67 130.000 16.41 -0.57 24.8 23.2 1454
3639.06 10.74 374.67 130.000 16.41 -0.56 24.7 23.2 1455
3641.57 10.74 374.67 130.000 17.34 -0.55 24.7 23.1 1456
3644.07 10.74 374.67 130.000 18.27 -0.55 24.8 23.5 1457
3646.56 10.74 254.73 130.000 17.34 -0.57 37.1 23.3 1458
3649.06 10.79 254.73 130.000 16.41 -0.54 58.4 23.2 1459
3651.56 10.79 254.73 130.000 18.28 3.14 25.0 23.4 1460
3654.06 10.79 254.73 130.000 18.28 1.27 24.8 23.4 1461
3656.56 10.79 520.99 130.000 17.34 1.27 25.9 23.2 1462
3659.06 10.79 386.37 130.000 17.34 1.27 23.1 23.7 1463
3661.57 10.73 386.37 130.000 17.33 -0.56 24.9 23.4 1464
3664.07 10.73 386.37 130.000 17.34 -0.54 24.9 23.5 1465
3666.57 10.73 386.37 130.000 17.33 -0.54 26.7 23.1 1466
3669.06 10.73 386.37 130.000 16.40 -0.56 27.6 23.3 1467
3671.57 10.73 386.37 130.000 16.41 1.29 24.9 23.9 1468
3674.07 10.73 386.37 130.000 17.34 -0.55 25.0 23.6 1469
3676.57 10.73 386.37 130.000 16.41 -0.56 24.8 23.5 1470
3679.07 10.73 386.37 130.000 16.40 1.29 24.9 23.3 1471
3681.56 10.73 386.37 130.000 18.28 1.29 24.9 23.3 1472
3684.06 10.73 386.37 130.000 17.35 -0.57 29.0 23.4 1473
3686.56 10.73 386.37 130.000 17.35 -0.55 29.0 23.3 1474
3689.07 10.73 386.37 130.000 16.41 3.14 37.5 23.2 1475
3691.57 10.73 262.66 130.000 16.41 3.14 31.1 23.3 1476
3694.06 10.73 262.66 130.000 18.27 -0.54 24.8 23.4 1477
3696.57 10.72 262.66 130.000 16.41 -0.58 24.8 23.7 1478
3699.06 10.72 262.66 130.000 16.40 1.30 34.7 23.3 1479
3701.57 10.72 178.97 130.000 17.35 1.30 24.8 23.8 1480
3704.07 10.72 178.97 130.000 17.34 -0.54 24.9 23.5 1481
3706.57 10.80 178.97 130.000 17.34 1.27 24.9 23.4 1482
3709.06 10.80 178.97 130.000 18.26 -0.54 25.0 23.3 1483
3711.56 10.80 178.97 130.000 18.27 1.29 25.1 23.2 1484
3714.07 10.80 178.97 130.000 17.35 4.96 26.8 23.4 1485
3716.57 10.80 178.97 130.000 16.40 1.28 27.9 23.1 1486
3719.06 10.80 178.97 130.000 16.41 -0.55 24.7 23.3 1487
3721.56 10.80 178.97 130.000 16.41 1.30 24.8 23.0 1488
3724.06 10.80 178.97 130.000 17.34 -0.57 25.0 23.3 1489
3726.57 10.80 178.97 130.000 17.34 1.29 37.0 23.1 1490
3729.06 10.80 178.97 130.000 16.41 1.30 24.9 23.3 1491
3731.57 10.80 178.97 130.000 16.41 -0.56 29.1 23.3 1492
3734.07 10.80 178.97 130.000 16.40 1.28 24.8 23.3 1493
3736.57 10.80 178.97 130.000 17.35 -0.56 35.2 23.6 1494
3739.07 10.80 122.87 130.000 18.27 1.28 24.8 23.4 1495
3741.56 10.81 122.87 130.000 17.34 -0.53 35.9 23.6 1496
3744.07 10.81 122.87 130.000 17.34 -0.55 24.9 23.3 1497
3746.57 10.81 122.87 130.000 17.33 1.29 34.7 23.2 1498
3749.06 10.81 189.15 130.000 16.41 -0.54 26.1 23.1 1499
3751.56 10.81 244.44 130.000 16.41 -0.57 23.5 23.5 1500
3754.06 10.76 244.44 130.000 16.41 -0.54 24.9 23.3 1501
3756.57 10.76 244.44 130.000 17.35 1.29 25.8 23.2 1502
3759.06 10.76 244.44 130.000 16.41 -0.56 25.1 23.8 1503
3761.57 10.76 244.44 130.000 16.41 -0.55 27.6 23.1 1504
3764.06 10.76 244.44 130.000 17.34 -0.54 24.8 23.9 1505
3766.56 10.76 244.44 130.000 16.41 -0.56 28.5 23.0 1506
3769.07 10.76 244.44 130.000 17.34 1.30 32.5 23.0 1507
3771.57 10.76 244.44 130.000 16.42 1.29 25.3 23.2 1508
3774.07 10.76 244.44 130.000 17.33 -0.54 28.7 23.5 1509
3776.56 10.76 244.44 130.000 19.21 -0.57 24.9 23.6 1510
3779.07 10.76 244.44 130.000 16.41 -0.55 28.8 23.5 1511
3781.56 10.76 244.44 130.000 16.41 -0.55 28.9 23.7 1512
3784.07 10.76 168.01 130.000 16.41 1.30 24.8 23.3 1513
3786.57 10.76 168.01 130.000 17.34 -0.53 36.8 23.3 1514
3789.06 10.74 168.01 130.000 18.27 -0.57 25.3 23.2 1515
3791.56 10.74 168.01 130.000 17.35 1.27 24.7 23.3 1516
3794.07 10.74 115.84 130.000 17.34 1.30 43.9 23.1 1517
3796.56 10.74 89.94 130.000 16.41 -0.57 24.8 23.2 1518
3799.07 10.79 108.95 130.000 18.27 -0.55 23.7 23.2 1519
3801.56 10.79 108.95 130.000 16.39 1.30 24.9 23.2 1520
3804.07 10.79 108.95 130.000 17.34 1.30 24.9 23.2 1521
3806.57 10.79 108.95 130.000 16.41 -0.54 24.9 23.2 1522
3809.06 10.79 108.95 130.000 16.39 -0.55 24.7 23.4 1523
3811.57 10.79 108.95 130.000 16.41 -0.56 28.3 23.3 1524
3814.06 10.79 108.95 130.000 17.34 -0.54 24.9 23.7 1525
3816.56 10.79 108.95 130.000 18.27 1.26 28.7 23.2 1526
3819.06 10.79 108.95 130.000 17.34 1.29 24.9 23.4 1527
3821.57 10.79 108.95 130.000 16.41 -0.54 28.9 23.3 1528
3824.06 10.79 108.95 130.000 16.41 1.30 29.1 23.4 1529
3826.56 10.79 108.95 130.000 16.41 -0.58 29.0 23.4 1530
3829.06 10.79 108.95 130.000 17.34 1.29 29.0 23.2 1531
3831.56 10.79 77.61 130.000 18.27 1.29 24.5 23.3 1532
3834.07 10.80 77.61 130.000 17.35 1.30 24.9 23.4 1533
3836.57 10.80 77.61 130.000 16.41 4.97 35.4 23.2 1534
3839.06 10.80 77.61 130.000 16.41 1.29 25.0 23.5 1535
3841.57 10.80 55.59 130.000 17.34 1.28 24.9 23.3 1536
3844.06 10.80 55.59 130.000 16.42 1.29 25.1 23.4 1537
3846.57 10.75 55.59 130.000 18.28 -0.58 25.1 23.4 1538
3849.07 10.75 55.59 130.000 16.41 1.29 24.8 23.6 1539
3851.57 10.75 55.59 130.000 16.40 -0.56 26.5 23.2 1540
3854.07 10.75 55.59 130.000 17.33 -0.56 25.0 23.1 1541
3856.56 10.75 55.59 130.000 16.40 1.27 24.9 23.2 1542
3859.06 10.75 55.59 130.000 16.41 3.14 24.8 23.3 1543
3861.57 10.75 55.59 130.000 16.41 -0.55 28.8 23.4 1544
3864.06 10.75 55.59 130.000 17.35 -0.56 25.0 23.2 1545
3866.57 10.75 55.59 130.000 17.34 -0.56 32.8 23.5 1546
3869.07 10.75 55.59 130.000 17.35 -0.55 24.9 23.5 1547
3871.57 10.75 55.59 130.000 16.40 -0.58 29.0 23.2 1548
3874.07 10.75 55.59 130.000 17.34 -0.56 29.0 22.8 1549
3876.57 10.75 40.66 130.000 16.41 -0.54 29.8 23.1 1550
3879.06 10.75 40.66 130.000 17.35 -0.56 24.8 23.3 1551
3881.57 10.76 40.66 130.000 16.41 -0.56 24.8 23.3 1552
3884.06 10.76 40.66 130.000 16.41 3.14 35.2 23.3 1553
3886.56 10.76 40.66 130.000 16.41 1.29 39.3 23.1 1554
3889.07 10.76 30.66 130.000 17.34 -0.56 24.9 23.4 1555
3891.57 10.81 30.66 130.000 16.42 1.28 24.9 23.3 1556
3894.07 10.81 30.66 130.000 16.41 1.27 24.6 23.2 1557
3896.57 10.81 30.66 130.000 16.41 1.29 24.9 23.4 1558
3899.06 10.81 30.66 130.000 16.41 -0.56 25.1 23.2 1559
3901.56 10.81 30.66 130.000 18.27 3.13 24.8 23.2 1560
3904.06 10.81 30.66 130.000 16.41 -0.55 24.6 23.2 1561
3906.57 10.81 30.66 130.000 16.41 3.12 32.4 23.0 1562
3909.07 10.81 30.66 130.000 18.27 -0.55 28.7 23.4 1563
3911.57 10.81 30.66 130.000 18.27 1.29 28.8 23.3 1564
3914.07 10.81 30.66 130.000 16.41 3.14 24.9 23.8 1565
3916.56 10.81 30.66 130.000 17.34 -0.54 24.8 23.6 1566
3919.07 10.81 30.66 130.000 16.41 1.29 24.9 23.5 1567
3921.57 10.81 30.66 130.000 17.33 1.30 29.0 23.1 1568
3924.06 10.81 24.02 130.000 17.33 -0.54 46.1 23.1 1569
3926.57 10.79 24.02 130.000 16.41 1.30 36.9 23.4 1570
3929.06 10.79 24.02 130.000 18.27 1.31 24.6 24.1 1571
3931.56 10.79 24.02 130.000 18.27 -0.55 24.9 23.1 1572
3934.06 10.79 19.61 130.000 18.27 3.13 24.8 23.3 1573
3936.57 10.79 389.38 130.000 17.34 1.30 24.8 23.5 1574
3939.06 10.76 389.38 130.000 16.40 1.28 24.8 23.6 1575
3941.57 10.76 389.38 130.000 17.34 -0.56 25.2 23.1 1576
3944.06 10.76 389.38 130.000 18.28 -0.55 24.9 23.2 1577
3946.56 10.76 389.38 130.000 17.33 -0.54 27.2 23.3 1578
3949.07 10.76 389.38 130.000 17.34 1.29 30.7 23.0 1579
3951.57 10.76 389.38 130.000 17.33 1.29 31.7 23.2 1580
3954.06 10.76 389.38 130.000 16.41 -0.54 28.6 23.2 1581
3956.57 10.76 389.38 130.000 16.41 1.30 28.7 23.1 1582
3959.07 10.76 389.38 130.000 16.42 -0.56 25.0 23.4 1583
3961.57 10.76 389.38 130.000 17.34 1.29 32.9 23.4 1584
3964.06 10.76 389.38 130.000 16.41 -0.54 28.8 23.5 1585
3966.57 10.76 389.38 130.000 17.35 -0.55 33.2 23.0 1586
3969.07 10.76 264.67 130.000 17.34 1.30 24.8 23.6 1587
3971.56 10.76 264.67 130.000 16.42 1.28 24.8 23.3 1588
3974.06 10.76 264.67 130.000 16.41 1.27 25.0 23.6 1589
3976.57 10.76 264.67 130.000 18.27 -0.56 24.9 23.4 1590
3979.06 10.76 264.67 130.000 16.41 -0.56 25.0 23.7 1591
3981.57 10.76 218.87 130.000 16.40 -0.55 22.9 23.4 1592
3984.07 10.79 218.87 130.000 17.33 -0.55 23.2 23.3 1593
3986.56 10.79 218.87 130.000 17.34 1.30 25.1 23.4 1594
3989.07 10.79 218.87 130.000 17.34 1.29 26.6 23.0 1595
3991.57 10.79 218.87 130.000 16.41 -0.56 25.1 23.5 1596
3994.07 10.79 218.87 130.000 18.28 1.28 27.5 23.6 1597
3996.57 10.79 218.87 130.000 16.41 1.28 28.2 23.2 1598
3999.07 10.79 218.87 130.000 16.41 1.29 28.3 23.7 1599
4001.57 10.79 218.87 130.000 18.26 1.30 24.8 23.5 1600
4004.06 10.79 218.87 130.000 17.34 -0.56 25.0 23.3 1601
4006.56 10.79 218.87 130.000 17.35 -0.54 28.7 23.1 1602
4009.07 10.79 218.87 130.000 17.34 1.30 37.2 22.8 1603
4011.57 10.79 218.87 130.000 16.41 -0.55 25.1 23.2 1604
4014.07 10.79 218.87 130.000 16.41 1.29 24.8 23.5 1605
4016.56 10.79 150.78 130.000 17.34 3.12 24.9 23.2 1606
4019.06 10.79 150.78 130.000 16.40 -0.53 36.9 23.4 1607
4021.57 10.74 150.78 130.000 17.35 -0.54 24.9 23.6 1608
4024.07 10.74 150.78 130.000 16.40 -0.53 34.4 23.1 1609
4026.57 10.74 104.24 130.000 17.33 3.14 32.2 23.4 1610
4029.06 10.74 115.23 130.000 17.34 1.29 22.8 23.3 1611
4031.57 10.74 115.23 130.000 16.42 -0.57 24.7 23.6 1612
4034.07 10.74 115.23 130.000 16.41 -0.54 24.9 23.3 1613
4036.56 10.74 115.23 130.000 18.27 -0.56 24.8 23.6 1614
4039.06 10.74 115.23 130.000 16.41 -0.55 27.4 23.3 1615
4041.57 10.74 115.23 130.000 16.41 1.28 27.6 23.3 1616
4044.06 10.74 115.23 130.000 16.41 -0.54 27.9 23.2 1617
4046.56 10.74 115.23 130.000 18.27 -0.55 32.2 23.4 1618
4049.06 10.74 115.23 130.000 17.34 1.29 32.6 23.2 1619
4051.57 10.74 115.23 130.000 17.34 -0.56 24.9 23.8 1620
4054.06 10.74 115.23 130.000 18.27 1.28 25.1 23.5 1621
4056.57 10.74 115.23 130.000 17.34 3.10 37.3 23.3 1622
4059.06 10.74 115.23 130.000 16.40 1.30 24.9 23.3 1623
4061.57 10.74 115.23 130.000 16.40 -0.56 24.9 23.2 1624
4064.06 10.74 81.75 130.000 18.27 -0.55 24.6 24.1 1625
4066.56 10.80 81.75 130.000 16.40 1.29 36.4 23.2 1626
4069.06 10.80 81.75 130.000 16.41 1.30 35.4 23.1 1627
4071.57 10.80 81.75 130.000 17.33 3.13 34.6 23.3 1628
4074.06 10.80 508.65 130.000 20.14 -0.55 25.1 23.5 1629
4076.56 10.78 390.36 130.000 18.26 -0.55 24.9 23.2 1630
4079.06 10.78 390.36 130.000 16.41 -0.55 24.6 23.2 1631
4081.56 10.78 390.36 130.000 17.34 3.13 24.8 23.3 1632
4084.07 10.78 390.36 130.000 16.41 -0.55 24.8 23.3 1633
4086.56 10.78 390.36 130.000 16.41 1.28 24.9 23.5 1634
4089.07 10.78 390.36 130.000 16.41 3.16 31.0 22.9 1635
4091.56 10.78 390.36 130.000 16.41 -0.56 24.8 23.3 1636
4094.06 10.78 390.36 130.000 18.27 -0.56 28.8 23.3 1637
4096.56 10.78 390.36 130.000 16.41 1.29 28.9 23.4 1638
4099.07 10.78 390.36 130.000 16.41 1.28 25.0 23.3 1639
4101.57 10.78 390.36 130.000 16.40 1.29 24.8 23.7 1640
4104.07 10.78 390.36 130.000 17.33 1.29 28.8 23.3 1641
4106.56 10.78 390.36 130.000 17.34 -0.56 25.0 23.3 1642
4109.06 10.78 265.31 130.000 17.34 1.28 31.4 23.1 1643
4111.57 10.78 265.31 130.000 17.35 -0.57 36.3 23.2 1644
4114.06 10.74 265.31 130.000 16.41 -0.55 24.8 23.4 1645
4116.56 10.74 265.31 130.000 16.41 1.29 24.8 23.5 1646
4119.07 10.74 180.74 130.000 16.40 3.14 24.9 23.3 1647
4121.56 10.74 180.74 130.000 16.40 -0.55 24.9 23.5 1648
4124.06 10.74 180.74 130.000 17.34 -0.57 25.0 23.4 1649
4126.56 10.74 180.74 130.000 17.35 -0.55 25.6 23.2 1650
4129.06 10.74 180.74 130.000 17.34 1.30 29.4 23.0 1651
4131.57 10.74 180.74 130.000 17.33 3.12 27.2 23.2 1652
4134.06 10.74 180.74 130.000 16.41 -0.56 24.8 23.4 1653
4136.56 10.74 180.74 130.000 16.41 1.30 25.1 23.3 1654
4139.07 10.74 180.74 130.000 17.34 -0.54 28.6 23.4 1655
4141.57 10.74 180.74 130.000 17.34 1.29 28.6 23.4 1656
4144.06 10.74 180.74 130.000 16.40 1.29 29.0 23.1 1657
4146.56 10.74 180.74 130.000 17.34 3.13 32.7 23.2 1658
4149.07 10.74 180.74 130.000 17.34 3.14 33.4 23.0 1659
4151.57 10.74 180.74 130.000 16.40 -0.55 29.1 23.0 1660
4154.06 10.74 180.74 130.000 17.33 -0.55 24.8 23.7 1661
4156.56 10.74 124.06 130.000 17.33 1.28 24.8 23.3 1662
4159.07 10.79 124.06 130.000 16.42 -0.55 36.7 23.5 1663
4161.56 10.79 124.06 130.000 16.41 -0.57 24.8 23.3 1664
4164.06 10.79 124.06 130.000 16.41 1.31 25.0 23.5 1665
4166.57 10.79 326.43 130.000 17.34 1.29 24.8 23.8 1666
4169.06 10.79 326.43 130.000 16.41 1.29 24.8 23.6 1667
4171.56 10.73 326.43 130.000 18.27 -0.57 24.8 23.7 1668
4174.07 10.73 326.43 130.000 16.41 1.27 27.7 23.2 1669
4176.56 10.73 326.43 130.000 17.34 3.12 24.8 23.5 1670
4179.07 10.73 326.43 130.000 18.26 1.29 24.9 23.2 1671
4181.57 10.73 326.43 130.000 17.34 1.26 27.9 23.2 1672
4184.06 10.73 326.43 130.000 16.41 -0.54 28.2 23.2 1673
4186.57 10.73 326.43 130.000 18.28 -0.56 32.3 23.6 1674
4189.06 10.73 326.43 130.000 16.41 -0.54 24.9 23.4 1675
4191.57 10.73 326.43 130.000 17.34 3.14 28.9 23.4 1676
4194.06 10.73 326.43 130.000 16.41 -0.55 24.9 23.6 1677
4196.57 10.73 326.43 130.000 16.41 1.29 29.0 23.4 1678
4199.06 10.73 326.43 130.000 16.41 -0.56 24.7 23.4 1679
4201.57 10.73 222.32 130.000 17.34 -0.57 25.0 23.9 1680
4204.07 10.73 222.32 130.000 16.41 1.29 36.7 23.2 1681
4206.56 10.72 222.32 130.000 17.34 1.28 24.9 23.2 1682
4209.07 10.72 222.32 130.000 17.34 3.13 24.8 23.3 1683
4211.56 10.72 151.85 130.000 17.34 -0.57 24.8 23.5 1684
4214.07 10.72 151.85 130.000 17.34 -0.53 19.5 23.2 1685
4216.57 10.78 151.85 130.000 16.41 -0.59 24.1 23.6 1686
4219.07 10.78 151.85 130.000 17.33 -0.55 24.9 23.4 1687
4221.57 10.78 151.85 130.000 16.40 -0.55 26.4 23.3 1688
4224.07 10.78 151.85 130.000 17.34 -0.56 29.7 23.0 1689
4226.57 10.78 151.85 130.000 17.35 1.28 27.9 23.2 1690
4229.06 10.78 151.85 130.000 18.27 -0.54 24.7 23.6 1691
4231.56 10.78 151.85 130.000 18.29 1.30 24.8 23.3 1692
4234.07 10.78 151.85 130.000 16.40 1.29 28.9 23.1 1693
4236.56 10.78 151.85 130.000 17.33 -0.56 24.9 23.5 1694
4239.07 10.78 151.85 130.000 16.40 1.30 24.6 23.5 1695
4241.57 10.78 151.85 130.000 16.40 -0.54 24.9 23.4 1696
4244.06 10.78 151.85 130.000 19.20 -0.55 25.0 23.4 1697
4246.56 10.78 151.85 130.000 16.42 1.27 29.0 23.1 1698
4249.07 10.78 104.80 130.000 17.34 1.30 25.2 23.5 1699
4251.57 10.79 104.80 130.000 17.33 1.30 24.7 23.2 1700
4254.07 10.79 104.80 130.000 17.34 1.29 35.6 23.3 1701
4256.57 10.79 104.80 130.000 16.41 4.97 34.5 23.1 1702
4259.06 10.79 184.72 130.000 17.33 -0.56 23.1 23.2 1703
4261.56 10.79 204.87 130.000 16.41 1.32 24.8 23.2 1704
4264.06 10.76 204.87 130.000 16.40 -0.56 24.6 23.3 1705
4266.56 10.76 204.87 130.000 19.20 -0.57 26.0 23.6 1706
4269.07 10.76 204.87 130.000 16.40 1.30 26.7 23.4 1707
4271.56 10.76 204.87 130.000 18.27 -0.53 24.9 23.3 1708
4274.06 10.76 204.87 130.000 16.41 1.29 37.0 22.8 1709
4276.56 10.76 204.87 130.000 16.40 -0.53 28.3 23.7 1710
4279.06 10.76 204.87 130.000 17.34 1.29 24.9 23.4 1711
4281.57 10.76 204.87 130.000 16.42 -0.57 24.9 23.3 1712
4284.06 10.76 204.87 130.000 17.33 -0.57 25.0 23.4 1713
4286.56 10.76 204.87 130.000 17.33 -0.55 33.0 23.4 1714
4289.06 10.76 204.87 130.000 17.34 1.29 33.0 23.3 1715
4291.56 10.76 204.87 130.000 17.34 1.30 24.9 23.4 1716
4294.07 10.76 141.68 130.000 17.35 -0.57 25.0 23.4 1717
4296.57 10.76 141.68 130.000 17.34 1.28 25.1 23.4 1718
4299.07 10.76 141.68 130.000 16.41 1.30 24.9 23.3 1719
4301.56 10.76 141.68 130.000 16.41 1.30 35.0 23.4 1720
4304.07 10.76 141.68 130.000 16.41 3.13 24.8 23.5 1721
4306.57 10.76 484.78 130.000 17.34 1.29 23.0 23.6 1722
4309.07 10.79 484.78 130.000 16.41 -0.54 24.9 23.4 1723
4311.57 10.79 484.78 130.000 16.41 1.29 24.9 23.3 1724
4314.06 10.79 484.78 130.000 17.33 -0.55 25.0 23.6 1725
4316.57 10.79 484.78 130.000 16.41 3.14 27.2 23.1 1726
4319.07 10.79 484.78 130.000 16.41 1.28 28.0 23.5 1727
4321.57 10.79 484.78 130.000 16.41 -0.57 24.9 23.6 1728
4324.06 10.79 484.78 130.000 16.41 -0.55 24.9 23.6 1729
4326.57 10.79 484.78 130.000 17.34 1.30 28.7 23.5 1730
4329.07 10.79 484.78 130.000 16.41 -0.54 25.0 23.3 1731
4331.57 10.79 484.78 130.000 17.34 1.28 29.0 23.2 1732
4334.07 10.79 484.78 130.000 16.41 -0.57 24.9 23.4 1733
4336.57 10.79 484.78 130.000 16.41 -0.57 24.9 23.3 1734
4339.06 10.79 484.78 130.000 16.41 1.25 25.0 23.3 1735
4341.57 10.79 328.10 130.000 16.41 -0.55 24.7 23.6 1736
4344.07 10.79 328.10 130.000 19.20 1.28 25.4 23.4 1737
4346.56 10.79 328.10 130.000 17.33 1.30 35.6 23.1 1738
4349.07 10.79 328.10 130.000 19.20 -0.56 44.1 23.2 1739
4351.57 10.79 280.26 130.000 16.40 1.31 25.0 23.4 1740
4354.07 10.79 291.74 130.000 16.41 -0.56 21.1 23.3 1741
4356.56 10.74 291.74 130.000 16.41 1.29 24.8 23.3 1742
4359.07 10.74 291.74 130.000 16.41 1.29 24.8 23.6 1743
4361.56 10.74 291.74 130.000 16.40 1.29 26.9 23.2 1744
4364.07 10.74 291.74 130.000 17.34 -0.55 30.5 23.2 1745
4366.57 10.74 291.74 130.000 16.41 1.28 31.2 23.4 1746
4369.06 10.74 291.74 130.000 18.28 1.31 24.8 23.6 1747
4371.56 10.74 291.74 130.000 18.26 1.28 24.8 23.3 1748
4374.07 10.74 291.74 130.000 17.34 1.29 28.7 23.1 1749
4376.57 10.74 291.74 130.000 17.34 -0.55 24.9 23.3 1750
4379.06 10.74 291.74 130.000 16.41 -0.57 24.9 23.3 1751
4381.56 10.74 291.74 130.000 17.33 1.30 24.7 23.3 1752
4384.07 10.74 291.74 130.000 16.41 3.14 24.9 23.3 1753
4386.57 10.74 199.47 130.000 17.34 -0.56 24.9 23.2 1754
4389.06 10.74 199.47 130.000 16.41 -0.56 25.1 23.3 1755
4391.57 10.75 199.47 130.000 17.35 1.28 35.9 23.2 1756
4394.06 10.75 199.47 130.000 17.34 -0.56 25.0 23.2 1757
4396.56 10.75 199.47 130.000 16.41 1.27 24.6 23.2 1758
4399.07 10.75 338.56 130.000 18.26 -0.55 24.9 23.4 1759
4401.57 10.78 338.56 130.000 17.34 1.30 22.1 23.1 1760
4404.06 10.78 338.56 130.000 18.27 -0.54 24.9 23.1 1761
4406.56 10.78 338.56 130.000 18.27 -0.55 25.9 23.4 1762
4409.07 10.78 338.56 130.000 17.33 -0.55 24.8 23.4 1763
4411.56 10.78 338.56 130.000 16.41 -0.54 28.0 23.4 1764
4414.06 10.78 338.56 130.000 16.41 1.26 34.9 23.2 1765
4416.57 10.78 338.56 130.000 18.27 -0.55 24.7 23.4 1766
4419.07 10.78 338.56 130.000 17.33 1.30 24.9 23.3 1767
4421.56 10.78 338.56 130.000 16.41 1.29 28.7 23.5 1768
4424.06 10.78 338.56 130.000 18.27 -0.56 28.9 23.3 1769
4426.57 10.78 338.56 130.000 16.41 1.28 29.0 23.2 1770
4429.07 10.78 338.56 130.000 18.26 -0.54 24.8 23.7 1771
4431.56 10.78 338.56 130.000 17.33 -0.54 24.9 23.5 1772
4434.06 10.78 230.47 130.000 19.21 1.29 40.2 23.0 1773
4436.56 10.78 230.47 130.000 16.41 3.13 36.6 23.2 1774
4439.06 10.72 230.47 130.000 16.40 -0.54 35.8 23.1 1775
4441.57 10.72 230.47 130.000 17.34 3.12 34.8 23.2 1776
4444.06 10.72 157.33 130.000 16.42 -0.55 24.8 23.5 1777
4446.57 10.72 617.75 130.000 17.33 -0.54 23.2 23.5 1778
4449.06 10.71 617.75 130.000 16.41 -0.55 25.0 23.6 1779
4451.56 10.71 617.75 130.000 18.27 1.29 24.8 23.3 1780
4454.07 10.71 617.75 130.000 17.34 1.27 26.5 23.2 1781
4456.57 10.71 617.75 130.000 18.27 1.29 24.8 23.5 1782
4459.06 10.71 617.75 130.000 16.41 -0.54 24.9 23.4 1783
4461.57 10.71 617.75 130.000 16.40 -0.55 25.0 23.3 1784
4464.06 10.71 617.75 130.000 17.34 -0.53 28.6 23.3 1785
4466.57 10.71 617.75 130.000 16.41 -0.55 29.2 23.0 1786
4469.06 10.71 617.75 130.000 18.26 1.31 24.7 23.6 1787
4471.57 10.71 617.75 130.000 16.41 -0.58 24.8 23.4 1788
4474.06 10.71 617.75 130.000 18.28 -0.56 28.9 23.6 1789
4476.57 10.71 617.75 130.000 16.41 1.30 33.3 23.2 1790
4479.07 10.71 617.75 130.000 18.27 -0.55 25.2 23.6 1791
4481.56 10.71 416.78 130.000 17.34 -0.57 24.8 23.6 1792
4484.06 10.79 416.78 130.000 16.41 1.28 24.6 23.6 1793
4486.56 10.79 416.78 130.000 16.40 3.14 34.7 23.2 1794
4489.07 10.79 416.78 130.000 19.20 -0.55 44.0 22.9 1795
4491.57 10.79 202.03 130.000 18.27 1.28 24.9 23.3 1796
4494.07 10.79 662.49 130.000 18.28 1.30 23.1 23.3 1797
4496.57 10.79 662.49 130.000 16.40 1.30 24.7 23.5 1798
4499.07 10.79 662.49 130.000 16.41 -0.55 25.2 23.2 1799
4501.57 10.79 662.49 130.000 17.34 1.29 25.0 23.7 1800
4504.06 10.79 662.49 130.000 18.27 -0.56 24.9 23.4 1801
4506.56 10.79 662.49 130.000 16.41 3.13 28.1 23.3 1802
4509.07 10.79 662.49 130.000 16.40 1.28 24.8 23.3 1803
4511.57 10.79 662.49 130.000 17.34 1.28 24.8 23.3 1804
4514.06 10.79 662.49 130.000 17.34 -0.54 24.5 23.6 1805
4516.57 10.79 662.49 130.000 16.40 1.30 33.0 23.2 1806
4519.07 10.79 662.49 130.000 17.34 -0.56 25.2 23.3 1807
4521.56 10.79 662.49 130.000 16.41 1.29 29.1 23.2 1808
4524.06 10.79 662.49 130.000 17.34 1.29 24.9 23.3 1809
4526.57 10.79 446.70 130.000 18.28 -0.55 32.0 23.2 1810
4529.07 10.79 446.70 130.000 17.34 -0.55 36.9 23.2 1811
4531.57 10.73 446.70 130.000 16.41 -0.56 24.9 23.5 1812
4534.06 10.73 446.70 130.000 19.21 -0.55 35.0 23.1 1813
4536.56 10.73 301.63 130.000 16.42 3.13 24.9 23.4 1814
4539.06 10.73 301.63 130.000 17.34 -0.56 24.8 23.3 1815
4541.57 10.74 301.63 130.000 17.34 -0.56 22.6 23.2 1816
4544.06 10.74 301.63 130.000 16.41 1.30 24.8 23.2 1817
4546.56 10.74 301.63 130.000 18.27 -0.55 26.3 23.3 1818
4549.07 10.74 301.63 130.000 17.34 1.29 29.6 23.1 1819
4551.56 10.74 301.63 130.000 18.27 -0.54 24.7 23.2 1820
4554.07 10.74 301.63 130.000 17.34 1.30 31.4 23.0 1821
4556.56 10.74 301.63 130.000 18.28 -0.57 24.8 23.4 1822
4559.07 10.74 301.63 130.000 17.34 1.30 33.0 23.5 1823
4561.56 10.74 301.63 130.000 16.40 1.28 29.1 23.3 1824
4564.07 10.74 301.63 130.000 16.42 1.28 24.9 23.3 1825
4566.57 10.74 301.63 130.000 17.34 -0.55 29.2 23.1 1826
4569.06 10.74 301.63 130.000 16.41 -0.55 29.2 23.4 1827
4571.57 10.74 301.63 130.000 16.41 1.29 33.4 23.2 1828
4574.06 10.74 204.64 130.000 17.33 1.30 24.9 23.4 1829
4576.57 10.79 204.64 130.000 18.27 -0.56 24.9 23.4 1830
4579.07 10.79 204.64 130.000 17.34 -0.56 24.8 23.5 1831
4581.56 10.79 204.64 130.000 18.27 1.32 24.8 23.5 1832
4584.07 10.79 140.01 130.000 18.26 -0.56 24.7 23.6 1833
4586.57 10.78 140.01 130.000 18.27 1.29 23.3 23.0 1834
4589.07 10.78 140.01 130.000 17.35 -0.55 25.1 23.1 1835
4591.57 10.78 140.01 130.000 17.33 -0.55 25.5 23.3 1836
4594.06 10.78 140.01 130.000 16.41 1.29 24.7 23.3 1837
4596.56 10.78 140.01 130.000 16.41 1.30 24.9 23.3 1838
4599.07 10.78 140.01 130.000 16.41 -0.55 25.0 23.8 1839
4601.57 10.78 140.01 130.000 17.34 1.30 28.0 23.3 1840
4604.06 10.78 140.01 130.000 16.42 1.30 25.0 23.2 1841
4606.56 10.78 140.01 130.000 17.34 -0.55 28.7 23.1 1842
4609.07 10.78 140.01 130.000 16.41 1.28 32.9 23.1 1843
4611.57 10.78 140.01 130.000 17.33 -0.55 25.1 23.3 1844
4614.07 10.78 140.01 130.000 17.34 -0.55 25.0 23.7 1845
4616.57 10.78 140.01 130.000 18.27 -0.55 24.8 23.4 1846
4619.07 10.78 96.96 130.000 16.40 -0.53 24.8 23.6 1847
4621.57 10.78 96.96 130.000 16.42 -0.57 25.1 23.3 1848
4624.07 10.75 96.96 130.000 18.28 -0.57 24.6 23.2 1849
4626.57 10.75 96.96 130.000 18.26 -0.54 24.9 23.7 1850
4629.07 10.75 68.22 130.000 16.41 -0.55 25.0 23.3 1851
4631.56 10.75 287.05 130.000 18.27 -0.56 25.0 23.5 1852
4634.07 10.75 287.05 130.000 16.41 -0.57 24.7 23.7 1853
4636.56 10.75 287.05 130.000 16.41 -0.55 25.1 23.3 1854
4639.07 10.75 287.05 130.000 16.41 -0.53 25.0 23.6 1855
4641.57 10.75 287.05 130.000 16.41 -0.56 25.0 23.3 1856
4644.06 10.75 287.05 130.000 16.41 1.29 25.0 23.0 1857
4646.56 10.75 287.05 130.000 18.26 -0.54 31.6 23.6 1858
4649.07 10.75 287.05 130.000 16.41 1.30 32.1 23.2 1859
4651.56 10.75 287.05 130.000 16.41 -0.57 25.1 23.3 1860
4654.07 10.75 287.05 130.000 17.34 -0.55 28.9 23.2 1861
4656.56 10.75 287.05 130.000 18.28 1.31 29.0 23.2 1862
4659.07 10.75 287.05 130.000 17.34 -0.56 28.9 23.4 1863
4661.56 10.75 287.05 130.000 16.41 1.29 24.9 23.3 1864
4664.07 10.75 287.05 130.000 16.41 1.28 24.8 23.5 1865
4666.57 10.75 196.28 130.000 18.27 -0.55 36.0 23.2 1866
4669.07 10.78 196.28 130.000 18.26 -0.54 24.7 23.6 1867
4671.56 10.78 196.28 130.000 17.34 -0.55 35.0 23.2 1868
4674.07 10.78 196.28 130.000 18.28 -0.56 25.0 23.4 1869
4676.57 10.78 223.65 130.000 18.27 1.29 25.1 23.6 1870
4679.06 10.78 223.65 130.000 16.42 -0.57 25.0 23.3 1871
4681.57 10.72 223.65 130.000 18.27 -0.59 25.1 23.6 1872
4684.06 10.72 223.65 130.000 16.41 -0.56 24.8 23.3 1873
4686.56 10.72 223.65 130.000 18.27 1.31 24.8 23.3 1874
