% Controller vpitch
% Log with 2000 values (sample interval=0.01ms)
% Uses separate derivative input (gyro) 0
% data format:
% 1   Time (ms)
% 2   Control reference input (setpoint) (r)
% 3   after pre-filter (r2)
% 4   error after Kp (ep)
% 5   error after Kp and lead/lag, before I (up)
% 6   integrator output (ui)
% 7   Controller output (u) after limiter
% 8   measurement (m)
% 9   measurement after filter (m2)
% 10  Feed forward output (uf)
% 
1.04 0.74625 0.74625 49.76666 36.43 0.00 36.43 -0.02062 -0.29055 0.00000
4.04 0.74638 0.74638 48.24841 37.91 0.00 37.91 -0.02062 -0.25880 0.00000
6.04 0.74649 0.74649 46.90865 39.04 0.00 39.04 -0.02062 -0.23078 0.00000
9.85 1.27513 1.27513 156.86163 46.44 0.00 46.44 -0.39562 -1.99282 0.00000
11.05 1.27502 1.27502 147.83685 58.90 0.00 58.90 -0.39562 -1.80491 0.00000
14.04 1.27373 1.27373 139.81628 68.89 0.00 68.89 -0.39562 -1.63911 0.00000
16.05 1.27243 1.27243 132.73192 76.82 0.00 76.82 -0.39562 -1.49282 0.00000
19.85 1.00734 1.00734 70.92926 79.76 0.00 79.76 -0.20812 -0.47036 0.00000
21.05 1.00666 1.00666 69.41611 78.63 0.00 78.63 -0.20812 -0.43951 0.00000
24.04 1.00704 1.00704 68.12738 77.47 0.00 77.47 -0.20812 -0.41228 0.00000
26.05 1.00738 1.00738 66.99085 76.31 0.00 76.31 -0.20812 -0.38827 0.00000
29.85 0.30321 0.30321 -82.17923 66.43 0.00 66.43 0.29188 2.01528 0.00000
31.05 0.30403 0.30403 -72.40769 49.53 0.00 49.53 0.29188 1.81253 0.00000
34.04 0.30264 0.30264 -63.88709 35.68 0.00 35.68 0.29188 1.63363 0.00000
36.05 0.30126 0.30126 -56.37639 24.41 0.00 24.41 0.29188 1.47577 0.00000
39.85 0.83049 0.83049 61.47662 21.84 0.00 21.84 -0.08312 -0.45027 0.00000
41.05 0.83093 0.83093 59.42465 26.38 0.00 26.38 -0.08312 -0.40708 0.00000
44.04 0.82970 0.82970 57.53611 30.16 0.00 30.16 -0.08312 -0.36897 0.00000
46.04 0.82847 0.82847 55.86274 33.28 0.00 33.28 -0.08312 -0.33534 0.00000
49.85 0.65319 0.65319 17.43674 33.68 0.00 33.68 0.04188 0.28992 0.00000
51.05 0.65410 0.65410 18.88150 31.85 0.00 31.85 0.04188 0.26074 0.00000
54.03 0.65434 0.65434 20.12883 30.40 0.00 30.40 0.04188 0.23499 0.00000
56.05 0.65455 0.65455 21.22938 29.25 0.00 29.25 0.04188 0.21227 0.00000
59.85 0.83118 0.83118 59.25791 30.55 0.00 30.55 -0.08312 -0.40336 0.00000
61.04 0.83153 0.83153 57.46652 33.82 0.00 33.82 -0.08312 -0.36569 0.00000
64.03 0.83068 0.83068 55.83012 36.51 0.00 36.51 -0.08312 -0.33245 0.00000
66.05 0.82983 0.82983 54.38147 38.69 0.00 38.69 -0.08312 -0.30311 0.00000
69.85 0.47828 0.47828 -20.91189 36.11 0.00 36.11 0.16688 0.91394 0.00000
71.04 0.47920 0.47920 -16.64914 29.65 0.00 29.65 0.16688 0.82605 0.00000
74.04 0.47859 0.47859 -12.95601 24.42 0.00 24.42 0.16688 0.74850 0.00000
76.05 0.47797 0.47797 -9.70088 20.22 0.00 20.22 0.16688 0.68008 0.00000
79.85 0.39085 0.39085 -25.27879 15.78 0.00 15.78 0.22938 0.91749 0.00000
81.04 0.39182 0.39182 -21.34662 11.18 0.00 11.18 0.22938 0.83654 0.00000
84.03 0.39090 0.39090 -17.96210 7.55 0.00 7.55 0.22938 0.76511 0.00000
86.05 0.38998 0.38998 -14.98101 4.73 0.00 4.73 0.22938 0.70208 0.00000
89.85 0.38823 0.38823 -12.39548 2.56 0.00 2.56 0.22938 0.64647 0.00000
91.04 0.38652 0.38652 -10.12192 0.93 0.00 0.93 0.22938 0.59740 0.00000
94.04 0.38481 0.38481 -8.12584 -0.25 0.00 -0.25 0.22938 0.55410 0.00000
96.04 0.38310 0.38310 -6.37441 -1.07 0.00 -1.07 0.22938 0.51590 0.00000
99.85 0.46992 0.46992 13.70504 -0.51 0.00 -0.51 0.16688 0.18439 0.00000
101.05 0.46869 0.46869 13.74535 1.16 0.00 1.16 0.16688 0.18233 0.00000
104.03 0.46804 0.46804 13.80103 2.64 0.00 2.64 0.16688 0.18051 0.00000
106.04 0.46739 0.46739 13.84702 3.96 0.00 3.96 0.16688 0.17891 0.00000
109.85 0.64452 0.64452 51.00549 7.31 0.00 7.31 0.04188 -0.41809 0.00000
111.05 0.64536 0.64536 48.44819 12.30 0.00 12.30 0.04188 -0.36398 0.00000
114.03 0.64510 0.64510 46.14406 16.42 0.00 16.42 0.04188 -0.31623 0.00000
116.05 0.64485 0.64485 44.10993 19.79 0.00 19.79 0.04188 -0.27410 0.00000
119.85 0.82134 0.82134 79.38526 24.73 0.00 24.73 -0.08312 -0.83252 0.00000
121.04 0.82155 0.82155 75.16349 30.91 0.00 30.91 -0.08312 -0.74435 0.00000
124.04 0.82201 0.82201 71.45142 35.90 0.00 35.90 -0.08312 -0.66656 0.00000
126.04 0.82243 0.82243 68.17694 39.89 0.00 39.89 -0.08312 -0.59792 0.00000
129.85 0.55724 0.55724 9.65837 39.77 0.00 39.77 0.10438 0.35603 0.00000
131.04 0.55650 0.55650 11.04368 36.31 0.00 36.31 0.10438 0.32642 0.00000
134.03 0.55758 0.55758 12.34944 33.42 0.00 33.42 0.10438 0.30030 0.00000
136.04 0.55862 0.55862 13.50615 31.01 0.00 31.01 0.10438 0.27725 0.00000
139.85 0.29507 0.29507 -41.05050 25.74 0.00 25.74 0.29188 1.15029 0.00000
141.04 0.29588 0.29588 -36.16412 18.17 0.00 18.17 0.29188 1.04930 0.00000
144.03 0.29688 0.29688 -31.83920 12.03 0.00 12.03 0.29188 0.96019 0.00000
146.05 0.29786 0.29786 -28.01798 7.09 0.00 7.09 0.29188 0.88157 0.00000
149.85 0.65070 0.65070 49.42514 7.52 0.00 7.52 0.04188 -0.37899 0.00000
151.04 0.65102 0.65102 47.06381 12.31 0.00 12.31 0.04188 -0.32947 0.00000
154.03 0.65001 0.65001 44.91807 16.27 0.00 16.27 0.04188 -0.28578 0.00000
156.04 0.64902 0.64902 43.02043 19.53 0.00 19.53 0.04188 -0.24724 0.00000
159.85 0.29618 0.29618 -32.72522 17.84 0.00 17.84 0.29188 0.97795 0.00000
161.04 0.29587 0.29587 -28.86580 12.12 0.00 12.12 0.29188 0.89724 0.00000
164.04 0.29453 0.29453 -25.51129 7.49 0.00 7.49 0.29188 0.82602 0.00000
166.05 0.29321 0.29321 -22.55869 3.78 0.00 3.78 0.29188 0.76318 0.00000
169.85 0.46876 0.46876 17.11773 3.02 0.00 3.02 0.16688 0.11214 0.00000
171.04 0.46813 0.46813 16.77811 4.66 0.00 4.66 0.16688 0.11858 0.00000
174.04 0.46832 0.46832 16.51486 6.07 0.00 6.07 0.16688 0.12426 0.00000
176.04 0.46851 0.46851 16.28306 7.28 0.00 7.28 0.16688 0.12928 0.00000
179.85 0.55698 0.55698 34.61146 9.42 0.00 9.42 0.10438 -0.16409 0.00000
181.04 0.55730 0.55730 33.11094 12.30 0.00 12.30 0.10438 -0.13251 0.00000
184.05 0.55629 0.55629 31.72452 14.66 0.00 14.66 0.10438 -0.10464 0.00000
186.05 0.55530 0.55530 30.49693 16.60 0.00 16.60 0.10438 -0.08005 0.00000
189.85 0.46848 0.46848 10.99401 17.09 0.00 17.09 0.16688 0.23944 0.00000
191.04 0.46976 0.46976 11.46521 16.40 0.00 16.40 0.16688 0.23090 0.00000
194.04 0.47052 0.47052 11.86333 15.84 0.00 15.84 0.16688 0.22337 0.00000
196.04 0.47124 0.47124 12.21679 15.39 0.00 15.39 0.16688 0.21672 0.00000
199.85 0.64841 0.64841 49.59090 17.22 0.00 17.22 0.04188 -0.38473 0.00000
201.04 0.64931 0.64931 47.22494 20.89 0.00 20.89 0.04188 -0.33454 0.00000
204.03 0.64844 0.64844 45.05759 23.86 0.00 23.86 0.04188 -0.29026 0.00000
206.04 0.64758 0.64758 43.14072 26.24 0.00 26.24 0.04188 -0.25118 0.00000
209.85 0.99886 0.99886 115.52335 32.49 0.00 32.49 -0.20812 -1.40788 0.00000
211.04 0.99763 0.99763 108.68941 41.85 0.00 41.85 -0.20812 -1.26673 0.00000
214.03 0.99912 0.99912 102.78303 49.37 0.00 49.37 -0.20812 -1.14219 0.00000
216.04 1.00059 1.00059 97.57894 55.35 0.00 55.35 -0.20812 -1.03230 0.00000
219.85 0.64714 0.64714 18.78246 55.68 0.00 55.68 0.04188 0.25584 0.00000
221.04 0.64622 0.64622 19.94638 51.41 0.00 51.41 0.04188 0.23067 0.00000
224.04 0.64738 0.64738 21.06843 47.77 0.00 47.77 0.04188 0.20845 0.00000
226.05 0.64852 0.64852 22.06390 44.69 0.00 44.69 0.04188 0.18886 0.00000
229.85 0.64879 0.64879 22.90688 42.08 0.00 42.08 0.04188 0.17157 0.00000
231.04 0.64903 0.64903 23.65090 39.87 0.00 39.87 0.04188 0.15631 0.00000
234.04 0.64905 0.64905 24.29773 38.00 0.00 38.00 0.04188 0.14284 0.00000
236.05 0.64905 0.64905 24.86795 36.42 0.00 36.42 0.04188 0.13097 0.00000
239.86 0.38449 0.38449 -30.21022 31.82 0.00 31.82 0.22938 1.01387 0.00000
241.05 0.38431 0.38431 -25.78848 24.78 0.00 24.78 0.22938 0.92157 0.00000
244.04 0.38513 0.38513 -21.84033 19.06 0.00 19.06 0.22938 0.84014 0.00000
246.05 0.38593 0.38593 -18.35306 14.46 0.00 14.46 0.22938 0.76828 0.00000
249.85 0.64973 0.64973 40.23497 14.04 0.00 14.04 0.04188 -0.18850 0.00000
251.04 0.64920 0.64920 38.90842 17.05 0.00 17.05 0.04188 -0.16140 0.00000
254.03 0.64986 0.64986 37.79262 19.55 0.00 19.55 0.04188 -0.13748 0.00000
256.05 0.65049 0.65049 36.81005 21.64 0.00 21.64 0.04188 -0.11638 0.00000
259.85 0.64944 0.64944 35.86574 23.37 0.00 23.37 0.04188 -0.09776 0.00000
261.04 0.64839 0.64839 35.02664 24.79 0.00 24.79 0.04188 -0.08134 0.00000
264.03 0.64881 0.64881 34.35107 25.96 0.00 25.96 0.04188 -0.06684 0.00000
266.04 0.64920 0.64920 33.75591 26.91 0.00 26.91 0.04188 -0.05405 0.00000
269.85 1.26510 1.26510 162.83655 35.31 0.00 35.31 -0.39562 -2.12732 0.00000
271.04 1.26416 1.26416 153.01213 49.73 0.00 49.73 -0.39562 -1.92359 0.00000
274.04 1.26503 1.26503 144.42535 61.38 0.00 61.38 -0.39562 -1.74383 0.00000
276.04 1.26586 1.26586 136.85165 70.70 0.00 70.70 -0.39562 -1.58522 0.00000
279.85 0.55971 0.55971 -18.11401 69.37 0.00 69.37 0.10438 0.93709 0.00000
281.04 0.55859 0.55859 -13.46552 59.35 0.00 59.35 0.10438 0.83912 0.00000
284.03 0.55839 0.55839 -9.32576 51.03 0.00 51.03 0.10438 0.75268 0.00000
286.04 0.55820 0.55820 -5.67411 44.14 0.00 44.14 0.10438 0.67641 0.00000
289.59 0.55864 0.55864 -2.42266 38.47 0.00 38.47 0.10438 0.60911 0.00000
291.41 0.82347 0.82347 56.02202 37.10 0.00 37.10 -0.08312 -0.34365 0.00000
294.03 0.82455 0.82455 54.60254 39.24 0.00 39.24 -0.08312 -0.31300 0.00000
296.04 0.82562 0.82562 53.35588 40.98 0.00 40.98 -0.08312 -0.28596 0.00000
299.48 0.82591 0.82591 52.22434 42.37 0.00 42.37 -0.08312 -0.26210 0.00000
301.42 0.73804 0.73804 32.70178 42.38 0.00 42.38 -0.02062 0.05675 0.00000
304.04 0.73681 0.73681 33.07976 41.26 0.00 41.26 -0.02062 0.04765 0.00000
306.05 0.73559 0.73559 33.40676 40.32 0.00 40.32 -0.02062 0.03962 0.00000
309.48 0.73497 0.73497 33.71700 39.52 0.00 39.52 -0.02062 0.03253 0.00000
311.42 0.82253 0.82253 52.51421 39.95 0.00 39.95 -0.08312 -0.27152 0.00000
314.05 0.82319 0.82319 51.48221 41.36 0.00 41.36 -0.08312 -0.24935 0.00000
316.04 0.82384 0.82384 50.57470 42.50 0.00 42.50 -0.08312 -0.22980 0.00000
319.49 0.82491 0.82491 49.79766 43.40 0.00 43.40 -0.08312 -0.21254 0.00000
321.42 0.73782 0.73782 30.59227 43.03 0.00 43.03 -0.02062 0.10048 0.00000
324.05 0.73728 0.73728 31.25055 41.60 0.00 41.60 -0.02062 0.08623 0.00000
326.06 0.73677 0.73677 31.82915 40.42 0.00 40.42 -0.02062 0.07366 0.00000
329.48 0.73616 0.73616 32.33228 39.44 0.00 39.44 -0.02062 0.06257 0.00000
331.41 0.38303 0.38303 -41.32442 34.27 0.00 34.27 0.22938 1.24396 0.00000
334.04 0.38340 0.38340 -35.57752 25.71 0.00 25.71 0.22938 1.12459 0.00000
336.05 0.38373 0.38373 -30.50610 18.80 0.00 18.80 0.22938 1.01927 0.00000
339.48 0.38490 0.38490 -25.98938 13.27 0.00 13.27 0.22938 0.92634 0.00000
341.41 0.56231 0.56231 15.05034 11.06 0.00 11.06 0.10438 0.24876 0.00000
344.04 0.56224 0.56224 15.86240 11.58 0.00 11.58 0.10438 0.23177 0.00000
346.04 0.56216 0.56216 16.57792 12.13 0.00 12.13 0.10438 0.21679 0.00000
349.47 0.56252 0.56252 17.23019 12.69 0.00 12.69 0.10438 0.20356 0.00000
351.41 0.47473 0.47473 -0.71800 12.17 0.00 12.17 0.16688 0.48969 0.00000
354.06 0.47366 0.47366 1.05375 10.75 0.00 10.75 0.16688 0.45171 0.00000
356.05 0.47259 0.47259 2.61099 9.70 0.00 9.70 0.16688 0.41820 0.00000
359.48 0.47124 0.47124 3.96513 8.95 0.00 8.95 0.16688 0.38863 0.00000
361.41 0.55803 0.55803 23.67768 9.52 0.00 9.52 0.10438 0.06475 0.00000
364.05 0.55729 0.55729 23.41818 11.17 0.00 11.17 0.10438 0.06941 0.00000
366.05 0.55654 0.55654 23.18495 12.60 0.00 12.60 0.10438 0.07352 0.00000
369.48 0.55667 0.55667 23.01669 13.84 0.00 13.84 0.10438 0.07715 0.00000
371.41 0.55678 0.55678 22.86819 14.91 0.00 14.91 0.10438 0.08036 0.00000
374.04 0.55640 0.55640 22.71451 15.83 0.00 15.83 0.10438 0.08318 0.00000
376.04 0.55606 0.55606 22.57863 16.64 0.00 16.64 0.10438 0.08567 0.00000
379.48 0.55763 0.55763 22.54843 17.33 0.00 17.33 0.10438 0.08787 0.00000
381.42 0.99987 0.99987 115.15303 23.39 0.00 23.39 -0.20812 -1.39915 0.00000
384.04 0.99963 0.99963 108.41592 33.79 0.00 33.79 -0.20812 -1.25903 0.00000
386.04 0.99940 0.99940 102.47010 42.22 0.00 42.22 -0.20812 -1.13540 0.00000
389.48 1.00082 1.00082 97.30194 49.01 0.00 49.01 -0.20812 -1.02631 0.00000
391.41 0.73781 0.73781 37.17501 51.15 0.00 51.15 -0.02062 -0.03667 0.00000
394.06 0.73652 0.73652 37.02219 49.50 0.00 49.50 -0.02062 -0.03478 0.00000
396.05 0.73523 0.73523 36.88034 48.02 0.00 48.02 -0.02062 -0.03311 0.00000
399.48 0.73628 0.73628 36.86028 46.71 0.00 46.71 -0.02062 -0.03165 0.00000
401.42 1.00171 1.00171 92.42109 48.82 0.00 48.82 -0.20812 -0.92373 0.00000
404.03 1.00233 1.00233 88.40997 53.71 0.00 53.71 -0.20812 -0.83954 0.00000
406.04 1.00291 1.00291 84.87225 57.59 0.00 57.59 -0.20812 -0.76526 0.00000
409.49 1.00371 1.00371 81.76442 60.61 0.00 60.61 -0.20812 -0.69971 0.00000
411.41 1.00447 1.00447 79.02487 62.94 0.00 62.94 -0.20812 -0.64188 0.00000
414.04 1.00313 1.00313 76.51082 64.69 0.00 64.69 -0.20812 -0.59085 0.00000
416.05 1.00186 1.00186 74.28861 65.95 0.00 65.95 -0.20812 -0.54582 0.00000
419.48 1.00058 1.00058 72.32018 66.81 0.00 66.81 -0.20812 -0.50609 0.00000
421.42 0.82306 0.82306 33.52835 65.18 0.00 65.18 -0.08312 0.12455 0.00000
424.04 0.82455 0.82455 34.77269 61.53 0.00 61.53 -0.08312 0.10012 0.00000
426.05 0.82603 0.82603 35.87878 58.45 0.00 58.45 -0.08312 0.07856 0.00000
429.48 0.82712 0.82712 36.84378 55.85 0.00 55.85 -0.08312 0.05954 0.00000
431.42 0.56376 0.56376 -17.87387 50.39 0.00 50.39 0.10438 0.93614 0.00000
434.04 0.56508 0.56508 -13.11365 42.64 0.00 42.64 0.10438 0.83828 0.00000
436.04 0.56636 0.56636 -8.90778 36.33 0.00 36.33 0.10438 0.75194 0.00000
439.48 0.56518 0.56518 -5.30751 31.22 0.00 31.22 0.10438 0.67576 0.00000
441.41 0.56408 0.56408 -2.13379 27.11 0.00 27.11 0.10438 0.60853 0.00000
444.04 0.56297 0.56297 0.65989 23.83 0.00 23.83 0.10438 0.54922 0.00000
446.05 0.56188 0.56188 3.11951 21.25 0.00 21.25 0.10438 0.49689 0.00000
449.48 0.56274 0.56274 5.37737 19.25 0.00 19.25 0.10438 0.45071 0.00000
451.41 0.73983 0.73983 44.42184 19.92 0.00 19.92 -0.02062 -0.18562 0.00000
454.03 0.73900 0.73900 43.45019 22.74 0.00 22.74 -0.02062 -0.16621 0.00000
456.04 0.73817 0.73817 42.58830 25.13 0.00 25.13 -0.02062 -0.14908 0.00000
459.48 0.73925 0.73925 41.91469 27.14 0.00 27.14 -0.02062 -0.13397 0.00000
461.41 0.74031 0.74031 41.32531 28.84 0.00 28.84 -0.02062 -0.12064 0.00000
464.04 0.74141 0.74141 40.81339 30.28 0.00 30.28 -0.02062 -0.10887 0.00000
466.04 0.74248 0.74248 40.36643 31.50 0.00 31.50 -0.02062 -0.09849 0.00000
469.48 0.74139 0.74139 39.87462 32.51 0.00 32.51 -0.02062 -0.08933 0.00000
471.42 0.47592 0.47592 -16.13819 30.08 0.00 30.08 0.16688 0.81214 0.00000
474.05 0.47490 0.47490 -12.54338 24.86 0.00 24.86 0.16688 0.73622 0.00000
476.04 0.47388 0.47388 -9.37725 20.64 0.00 20.64 0.16688 0.66924 0.00000
479.48 0.47430 0.47430 -6.52027 17.28 0.00 17.28 0.16688 0.61014 0.00000
481.42 0.73913 0.73913 51.57716 17.90 0.00 17.90 -0.02062 -0.33539 0.00000
484.05 0.73776 0.73776 49.73361 21.75 0.00 21.75 -0.02062 -0.29836 0.00000
486.04 0.73638 0.73638 48.09940 24.95 0.00 24.95 -0.02062 -0.26569 0.00000
489.48 0.73730 0.73730 46.75928 27.59 0.00 27.59 -0.02062 -0.23686 0.00000
491.41 0.91444 0.91444 82.62953 31.96 0.00 31.96 -0.14562 -0.80700 0.00000
494.04 0.91599 0.91599 78.96880 37.70 0.00 37.70 -0.14562 -0.72919 0.00000
496.05 0.91753 0.91753 75.74712 42.37 0.00 42.37 -0.14562 -0.66054 0.00000
499.49 0.91849 0.91849 72.88551 46.13 0.00 46.13 -0.14562 -0.59996 0.00000
501.41 0.83130 0.83130 51.84056 48.04 0.00 48.04 -0.08312 -0.24872 0.00000
504.04 0.83119 0.83119 50.90015 48.43 0.00 48.43 -0.08312 -0.22923 0.00000
506.04 0.83110 0.83110 50.07084 48.67 0.00 48.67 -0.08312 -0.21205 0.00000
509.49 0.83100 0.83100 49.33826 48.79 0.00 48.79 -0.08312 -0.19688 0.00000
511.41 0.30207 0.30207 -62.45750 42.28 0.00 42.28 0.29188 1.60327 0.00000
514.04 0.30102 0.30102 -55.10224 30.39 0.00 30.39 0.29188 1.44899 0.00000
516.06 0.30005 0.30005 -48.61458 20.71 0.00 20.71 0.29188 1.31286 0.00000
519.49 0.29958 0.29958 -42.87158 12.90 0.00 12.90 0.29188 1.19274 0.00000
521.43 0.73983 0.73983 54.81811 12.08 0.00 12.08 -0.02062 -0.40221 0.00000
524.05 0.74061 0.74061 52.70058 16.98 0.00 16.98 -0.02062 -0.35732 0.00000
526.04 0.74134 0.74134 50.83446 21.08 0.00 21.08 -0.02062 -0.31771 0.00000
529.48 0.73961 0.73961 49.07378 24.47 0.00 24.47 -0.02062 -0.28276 0.00000
531.41 0.73794 0.73794 47.51313 27.28 0.00 27.28 -0.02062 -0.25192 0.00000
534.04 0.73898 0.73898 46.25704 29.58 0.00 29.58 -0.02062 -0.22471 0.00000
536.05 0.73999 0.73999 45.15297 31.48 0.00 31.48 -0.02062 -0.20070 0.00000
539.48 0.74031 0.74031 44.15166 33.03 0.00 33.03 -0.02062 -0.17951 0.00000
541.41 0.82875 0.82875 61.79355 35.38 0.00 35.38 -0.08312 -0.45861 0.00000
544.05 0.82743 0.82743 59.60974 38.36 0.00 38.36 -0.08312 -0.41444 0.00000
546.05 0.82611 0.82611 57.67544 40.74 0.00 40.74 -0.08312 -0.37546 0.00000
549.48 0.82709 0.82709 56.07174 42.64 0.00 42.64 -0.08312 -0.34107 0.00000
551.41 0.73991 0.73991 36.13618 43.05 0.00 43.05 -0.02062 -0.01293 0.00000
554.04 0.73865 0.73865 36.11908 42.23 0.00 42.23 -0.02062 -0.01383 0.00000
556.04 0.73743 0.73743 36.09905 41.51 0.00 41.51 -0.02062 -0.01463 0.00000
559.48 0.73823 0.73823 36.17144 40.88 0.00 40.88 -0.02062 -0.01534 0.00000
561.42 0.82713 0.82713 54.76220 41.42 0.00 41.42 -0.08312 -0.31375 0.00000
564.04 0.82647 0.82647 53.42836 42.91 0.00 42.91 -0.08312 -0.28662 0.00000
566.04 0.82584 0.82584 52.24895 44.08 0.00 44.08 -0.08312 -0.26268 0.00000
569.48 0.82582 0.82582 51.23425 44.98 0.00 44.98 -0.08312 -0.24156 0.00000
571.41 0.73769 0.73769 31.81505 44.57 0.00 44.57 -0.02062 0.07488 0.00000
574.04 0.73804 0.73804 32.37116 43.11 0.00 43.11 -0.02062 0.06364 0.00000
576.05 0.73836 0.73836 32.86218 41.87 0.00 41.87 -0.02062 0.05373 0.00000
579.48 0.73702 0.73702 33.21809 40.83 0.00 40.83 -0.02062 0.04498 0.00000
581.42 0.82385 0.82385 52.05032 41.04 0.00 41.04 -0.08312 -0.26053 0.00000
584.05 0.82305 0.82305 51.00990 42.28 0.00 42.28 -0.08312 -0.23966 0.00000
586.04 0.82229 0.82229 50.08989 43.25 0.00 43.25 -0.08312 -0.22124 0.00000
589.49 0.82126 0.82126 49.26046 44.01 0.00 44.01 -0.08312 -0.20499 0.00000
591.41 0.99659 0.99659 85.57590 46.76 0.00 46.76 -0.20812 -0.78625 0.00000
594.04 0.99737 0.99737 82.34877 51.14 0.00 51.14 -0.20812 -0.71823 0.00000
596.04 0.99814 0.99814 79.50507 54.64 0.00 54.64 -0.20812 -0.65822 0.00000
599.48 0.99749 0.99749 76.93247 57.42 0.00 57.42 -0.20812 -0.60527 0.00000
601.41 0.46803 0.46803 -36.48901 53.04 0.00 53.04 0.16688 1.22822 0.00000
604.03 0.46666 0.46666 -30.56132 42.86 0.00 42.86 0.16688 1.10336 0.00000
606.05 0.46530 0.46530 -25.33817 34.53 0.00 34.53 0.16688 0.99318 0.00000
609.48 0.46464 0.46464 -20.70366 27.76 0.00 27.76 0.16688 0.89597 0.00000
611.42 0.46403 0.46403 -16.61588 22.30 0.00 22.30 0.16688 0.81019 0.00000
614.04 0.46461 0.46461 -12.95538 17.93 0.00 17.93 0.16688 0.73451 0.00000
616.05 0.46514 0.46514 -9.72448 14.49 0.00 14.49 0.16688 0.66773 0.00000
619.48 0.46580 0.46580 -6.86435 11.81 0.00 11.81 0.16688 0.60880 0.00000
621.41 0.73084 0.73084 51.23587 13.03 0.00 13.03 -0.02062 -0.33657 0.00000
624.06 0.73067 0.73067 49.44353 17.42 0.00 17.42 -0.02062 -0.29940 0.00000
626.06 0.73052 0.73052 47.86206 21.09 0.00 21.09 -0.02062 -0.26660 0.00000
629.48 0.72930 0.72930 46.41434 24.16 0.00 24.16 -0.02062 -0.23766 0.00000
631.41 1.08063 1.08063 119.22894 31.06 0.00 31.06 -0.27062 -1.40331 0.00000
634.04 1.08091 1.08091 112.84600 41.06 0.00 41.06 -0.27062 -1.27005 0.00000
636.05 1.08117 1.08117 107.21459 49.17 0.00 49.17 -0.27062 -1.15247 0.00000
639.48 1.08130 1.08130 102.24133 55.71 0.00 55.71 -0.27062 -1.04872 0.00000
641.41 0.90518 0.90518 60.80515 58.74 0.00 58.74 -0.14562 -0.36159 0.00000
644.03 0.90597 0.90597 59.62352 58.92 0.00 58.92 -0.14562 -0.33619 0.00000
646.05 0.90674 0.90674 58.58428 58.94 0.00 58.94 -0.14562 -0.31377 0.00000
649.48 0.90779 0.90779 57.68525 58.84 0.00 58.84 -0.14562 -0.29399 0.00000
651.41 0.55627 0.55627 -17.20188 54.30 0.00 54.30 0.10438 0.91465 0.00000
654.03 0.55636 0.55636 -12.62183 46.16 0.00 46.16 0.10438 0.81932 0.00000
656.04 0.55643 0.55643 -8.58120 39.48 0.00 39.48 0.10438 0.73521 0.00000
659.48 0.55717 0.55717 -4.98325 34.04 0.00 34.04 0.10438 0.66099 0.00000
661.41 0.73415 0.73415 35.24306 31.81 0.00 31.81 -0.02062 -0.00008 0.00000
664.04 0.73467 0.73467 35.38408 32.23 0.00 32.23 -0.02062 -0.00250 0.00000
666.05 0.73518 0.73518 35.51083 32.61 0.00 32.61 -0.02062 -0.00463 0.00000
669.48 0.73537 0.73537 35.61026 32.95 0.00 32.95 -0.02062 -0.00651 0.00000
671.15 0.73553 0.73553 35.69773 33.27 0.00 33.27 -0.02062 -0.00817 0.00000
674.41 0.55947 0.55947 -1.27085 31.38 0.00 31.38 0.10438 0.58595 0.00000
676.04 0.55964 0.55964 1.45673 27.70 0.00 27.70 0.10438 0.52930 0.00000
679.48 0.56030 0.56030 3.88763 24.76 0.00 24.76 0.10438 0.47930 0.00000
681.04 0.56091 0.56091 6.03419 22.43 0.00 22.43 0.10438 0.43520 0.00000
684.41 0.73593 0.73593 44.89156 22.78 0.00 22.78 -0.02062 -0.19931 0.00000
686.04 0.73470 0.73470 43.82346 25.32 0.00 25.32 -0.02062 -0.17829 0.00000
689.48 0.73457 0.73457 42.92692 27.45 0.00 27.45 -0.02062 -0.15974 0.00000
691.04 0.73446 0.73446 42.13610 29.22 0.00 29.22 -0.02062 -0.14338 0.00000
694.40 0.64727 0.64727 22.96378 29.61 0.00 29.61 0.04188 0.16886 0.00000
696.05 0.64815 0.64815 23.72313 28.88 0.00 28.88 0.04188 0.15392 0.00000
699.48 0.64832 0.64832 24.36410 28.31 0.00 28.31 0.04188 0.14074 0.00000
701.04 0.64847 0.64847 24.92955 27.88 0.00 27.88 0.04188 0.12911 0.00000
704.41 0.91192 0.91192 80.95013 30.82 0.00 30.82 -0.14562 -0.77454 0.00000
706.04 0.91103 0.91103 77.35593 36.51 0.00 36.51 -0.14562 -0.70055 0.00000
709.47 0.91184 0.91184 74.26070 41.13 0.00 41.13 -0.14562 -0.63526 0.00000
711.04 0.91258 0.91258 71.53162 44.87 0.00 44.87 -0.14562 -0.57766 0.00000
714.41 0.91176 0.91176 69.05240 47.86 0.00 47.86 -0.14562 -0.52683 0.00000
716.04 0.91094 0.91094 66.86040 50.23 0.00 50.23 -0.14562 -0.48198 0.00000
719.48 0.91191 0.91191 65.00722 52.07 0.00 52.07 -0.14562 -0.44241 0.00000
721.04 0.91286 0.91286 63.37693 53.50 0.00 53.50 -0.14562 -0.40749 0.00000
724.40 0.47368 0.47368 -30.65288 49.13 0.00 49.13 0.16688 1.11228 0.00000
726.04 0.47512 0.47512 -25.24499 40.06 0.00 40.06 0.16688 1.00106 0.00000
729.48 0.47504 0.47504 -20.53830 32.66 0.00 32.66 0.16688 0.90292 0.00000
731.05 0.47495 0.47495 -16.38610 26.64 0.00 26.64 0.16688 0.81633 0.00000
734.40 0.65037 0.65037 24.28974 23.97 0.00 23.97 0.04188 0.14433 0.00000
736.04 0.64958 0.64958 24.83053 24.04 0.00 24.04 0.04188 0.13228 0.00000
739.48 0.64927 0.64927 25.32636 24.16 0.00 24.16 0.04188 0.12164 0.00000
741.05 0.64897 0.64897 25.76233 24.33 0.00 24.33 0.04188 0.11226 0.00000
744.41 0.47360 0.47360 -10.84618 22.34 0.00 22.34 0.16688 0.69957 0.00000
746.04 0.47443 0.47443 -7.79820 18.62 0.00 18.62 0.16688 0.63690 0.00000
749.48 0.47527 0.47527 -5.10396 15.67 0.00 15.67 0.16688 0.58160 0.00000
751.04 0.47605 0.47605 -2.72427 13.36 0.00 13.36 0.16688 0.53281 0.00000
754.40 0.56270 0.56270 17.79525 12.68 0.00 12.68 0.10438 0.19196 0.00000
756.04 0.56129 0.56129 18.22235 13.31 0.00 13.31 0.10438 0.18166 0.00000
759.49 0.56034 0.56034 18.61305 13.91 0.00 13.91 0.10438 0.17257 0.00000
761.05 0.55939 0.55939 18.95263 14.48 0.00 14.48 0.10438 0.16454 0.00000
764.40 0.64786 0.64786 37.83301 16.12 0.00 16.12 0.04188 -0.14033 0.00000
766.04 0.64818 0.64818 36.81950 18.61 0.00 18.61 0.04188 -0.11889 0.00000
769.48 0.64844 0.64844 35.92416 20.70 0.00 20.70 0.04188 -0.09998 0.00000
771.04 0.64870 0.64870 35.13569 22.45 0.00 22.45 0.04188 -0.08329 0.00000
774.40 0.82599 0.82599 71.52688 26.08 0.00 26.08 -0.08312 -0.66415 0.00000
776.04 0.82700 0.82700 68.29406 31.24 0.00 31.24 -0.08312 -0.59580 0.00000
779.48 0.82576 0.82576 65.33953 35.42 0.00 35.42 -0.08312 -0.53548 0.00000
781.05 0.82452 0.82452 62.72561 38.79 0.00 38.79 -0.08312 -0.48226 0.00000
784.40 0.82362 0.82362 60.42859 41.47 0.00 41.47 -0.08312 -0.43531 0.00000
786.05 0.82273 0.82273 58.39676 43.58 0.00 43.58 -0.08312 -0.39387 0.00000
789.48 0.82171 0.82171 56.59333 45.22 0.00 45.22 -0.08312 -0.35731 0.00000
791.04 0.82075 0.82075 54.99889 46.46 0.00 46.46 -0.08312 -0.32506 0.00000
794.40 0.90858 0.90858 72.14255 48.47 0.00 48.47 -0.14562 -0.59439 0.00000
796.04 0.90831 0.90831 69.59514 51.11 0.00 51.11 -0.14562 -0.54159 0.00000
799.48 0.90769 0.90769 67.32958 53.15 0.00 53.15 -0.14562 -0.49501 0.00000
801.05 0.90712 0.90712 65.32927 54.70 0.00 54.70 -0.14562 -0.45390 0.00000
804.41 0.81938 0.81938 45.08272 54.76 0.00 54.76 -0.08312 -0.11984 0.00000
806.05 0.81975 0.81975 44.89295 53.61 0.00 53.61 -0.08312 -0.11552 0.00000
809.48 0.81823 0.81823 44.63703 52.57 0.00 52.57 -0.08312 -0.11171 0.00000
811.05 0.81673 0.81673 44.40387 51.62 0.00 51.62 -0.08312 -0.10835 0.00000
814.41 0.63968 0.63968 7.17450 48.58 0.00 48.58 0.04188 0.49021 0.00000
816.05 0.63892 0.63892 9.66996 43.86 0.00 43.86 0.04188 0.43746 0.00000
819.48 0.64024 0.64024 11.96707 39.97 0.00 39.97 0.04188 0.39092 0.00000
821.04 0.64153 0.64153 14.00022 36.80 0.00 36.80 0.04188 0.34986 0.00000
824.40 0.64126 0.64126 15.72649 34.22 0.00 34.22 0.04188 0.31363 0.00000
826.04 0.64100 0.64100 17.24858 32.13 0.00 32.13 0.04188 0.28165 0.00000
829.48 0.64218 0.64218 18.65930 30.46 0.00 30.46 0.04188 0.25345 0.00000
831.05 0.64335 0.64335 19.91025 29.15 0.00 29.15 0.04188 0.22855 0.00000
834.40 0.64438 0.64438 21.01371 28.13 0.00 28.13 0.04188 0.20659 0.00000
836.04 0.64539 0.64539 21.99245 27.35 0.00 27.35 0.04188 0.18721 0.00000
839.48 0.64624 0.64624 22.85397 26.77 0.00 26.77 0.04188 0.17011 0.00000
841.05 0.64707 0.64707 23.61821 26.35 0.00 26.35 0.04188 0.15503 0.00000
844.40 1.00051 1.00051 98.39883 30.43 0.00 30.43 -0.20812 -1.04946 0.00000
846.04 1.00143 1.00143 93.69180 38.15 0.00 38.15 -0.20812 -0.95048 0.00000
849.48 1.00240 1.00240 89.54599 44.44 0.00 44.44 -0.20812 -0.86314 0.00000
851.04 1.00335 1.00335 85.89274 49.53 0.00 49.53 -0.20812 -0.78608 0.00000
854.40 0.73932 0.73932 27.07318 50.35 0.00 50.35 -0.02062 0.17529 0.00000
856.04 0.73964 0.73964 28.19497 47.68 0.00 47.68 -0.02062 0.15225 0.00000
859.48 0.73967 0.73967 29.17246 45.44 0.00 45.44 -0.02062 0.13191 0.00000
861.04 0.73968 0.73968 30.03431 43.58 0.00 43.58 -0.02062 0.11396 0.00000
864.41 0.82677 0.82677 49.26869 43.12 0.00 43.12 -0.08312 -0.19967 0.00000
866.04 0.82575 0.82575 48.56169 43.80 0.00 43.80 -0.08312 -0.18595 0.00000
869.48 0.82556 0.82556 47.97179 44.32 0.00 44.32 -0.08312 -0.17386 0.00000
871.05 0.82538 0.82538 47.45121 44.72 0.00 44.72 -0.08312 -0.16318 0.00000
874.40 0.29757 0.29757 -64.10048 38.48 0.00 38.48 0.29188 1.63300 0.00000
876.05 0.29847 0.29847 -56.48404 26.86 0.00 26.86 0.29188 1.47522 0.00000
879.48 0.29925 0.29925 -49.76413 17.45 0.00 17.45 0.29188 1.33600 0.00000
881.04 0.30000 0.30000 -43.83205 9.89 0.00 9.89 0.29188 1.21316 0.00000
884.40 0.47651 0.47651 -1.56857 6.06 0.00 6.06 0.16688 0.50919 0.00000
886.05 0.47676 0.47676 0.37631 5.28 0.00 5.28 0.16688 0.46892 0.00000
889.48 0.47775 0.47775 2.12950 4.80 0.00 4.80 0.16688 0.43338 0.00000
891.05 0.47871 0.47871 3.68090 4.58 0.00 4.58 0.16688 0.40203 0.00000
894.40 1.09727 1.09727 134.75836 12.18 0.00 12.18 -0.27062 -1.71020 0.00000
896.04 1.09894 1.09894 126.70892 26.13 0.00 26.13 -0.27062 -1.54083 0.00000
899.48 1.09807 1.09807 119.49426 37.54 0.00 37.54 -0.27062 -1.39140 0.00000
901.05 1.09727 1.09727 113.12697 46.81 0.00 46.81 -0.27062 -1.25954 0.00000
904.40 0.74437 0.74437 33.42675 49.92 0.00 49.92 -0.02062 0.04798 0.00000
906.04 0.74398 0.74398 33.79567 48.00 0.00 48.00 -0.02062 0.03991 0.00000
909.48 0.74261 0.74261 34.07177 46.35 0.00 46.35 -0.02062 0.03279 0.00000
911.05 0.74127 0.74127 34.30903 44.92 0.00 44.92 -0.02062 0.02650 0.00000
914.41 0.65391 0.65391 16.08747 42.60 0.00 42.60 0.04188 0.31875 0.00000
916.04 0.65462 0.65462 17.68517 39.57 0.00 39.57 0.04188 0.28618 0.00000
919.47 0.65388 0.65388 19.02946 37.08 0.00 37.08 0.04188 0.25744 0.00000
921.05 0.65317 0.65317 20.21240 35.02 0.00 35.02 0.04188 0.23208 0.00000
924.40 0.56587 0.56587 2.80189 32.26 0.00 32.26 0.10438 0.50749 0.00000
926.04 0.56665 0.56665 5.11584 28.93 0.00 28.93 0.10438 0.46007 0.00000
929.48 0.56747 0.56747 7.16414 26.25 0.00 26.25 0.10438 0.41822 0.00000
931.05 0.56827 0.56827 8.97453 24.11 0.00 24.11 0.10438 0.38130 0.00000
934.40 0.83147 0.83147 66.05445 25.68 0.00 25.68 -0.08312 -0.54466 0.00000
936.04 0.83033 0.83033 63.39313 30.28 0.00 30.28 -0.08312 -0.49036 0.00000
939.48 0.83065 0.83065 61.10888 34.04 0.00 34.04 -0.08312 -0.44245 0.00000
941.05 0.83095 0.83095 59.09418 37.11 0.00 37.11 -0.08312 -0.40018 0.00000
944.40 1.00769 1.00769 94.37576 41.77 0.00 41.77 -0.20812 -0.95847 0.00000
946.04 1.00817 1.00817 90.16127 47.71 0.00 47.71 -0.20812 -0.87019 0.00000
949.48 1.00647 1.00647 86.34123 52.48 0.00 52.48 -0.20812 -0.79230 0.00000
951.06 1.00478 1.00478 82.96115 56.26 0.00 56.26 -0.20812 -0.72357 0.00000
954.40 0.82776 0.82776 42.96486 57.05 0.00 57.05 -0.08312 -0.06735 0.00000
956.04 0.82703 0.82703 43.01892 55.40 0.00 55.40 -0.08312 -0.06920 0.00000
959.48 0.82588 0.82588 43.04275 53.94 0.00 53.94 -0.08312 -0.07084 0.00000
961.04 0.82481 0.82481 43.06056 52.66 0.00 52.66 -0.08312 -0.07228 0.00000
964.40 0.91382 0.91382 61.68832 52.63 0.00 52.63 -0.14562 -0.37135 0.00000
966.05 0.91467 0.91467 60.45436 53.62 0.00 53.62 -0.14562 -0.34480 0.00000
969.48 0.91464 0.91464 59.32810 54.36 0.00 54.36 -0.14562 -0.32137 0.00000
971.04 0.91461 0.91461 58.33429 54.88 0.00 54.88 -0.14562 -0.30069 0.00000
974.40 1.00291 1.00291 75.99142 56.33 0.00 56.33 -0.20812 -0.58024 0.00000
976.04 1.00307 1.00307 73.89764 58.52 0.00 58.52 -0.20812 -0.53646 0.00000
979.48 1.00419 1.00419 72.09698 60.22 0.00 60.22 -0.20812 -0.49783 0.00000
981.06 1.00526 1.00526 70.51257 61.53 0.00 61.53 -0.20812 -0.46375 0.00000
984.41 0.47787 0.47787 -42.01049 55.96 0.00 55.96 0.16688 1.35309 0.00000
986.05 0.47922 0.47922 -35.24695 44.84 0.00 44.84 0.16688 1.21353 0.00000
989.48 0.47794 0.47794 -29.39772 35.76 0.00 35.76 0.16688 1.09040 0.00000
991.04 0.47673 0.47673 -24.24085 28.40 0.00 28.40 0.16688 0.98175 0.00000
994.41 0.30160 0.30160 -56.63341 20.30 0.00 20.30 0.29188 1.48147 0.00000
996.04 0.30272 0.30272 -49.86240 11.65 0.00 11.65 0.29188 1.34152 0.00000
999.48 0.30270 0.30270 -43.93573 4.76 0.00 4.76 0.29188 1.21803 0.00000
1001.04 0.30267 0.30267 -38.70714 -0.66 0.00 -0.66 0.29188 1.10907 0.00000
1004.40 0.83130 0.83130 77.04633 1.67 0.00 1.67 -0.08312 -0.77384 0.00000
1006.04 0.83118 0.83118 73.14036 10.31 0.00 10.31 -0.08312 -0.69258 0.00000
1009.48 0.83022 0.83022 69.65239 17.50 0.00 17.50 -0.08312 -0.62088 0.00000
1011.05 0.82925 0.82925 66.56938 23.45 0.00 23.45 -0.08312 -0.55761 0.00000
1014.40 0.74065 0.74065 45.34303 27.27 0.00 27.27 -0.02062 -0.20400 0.00000
1016.04 0.74022 0.74022 44.28684 29.34 0.00 29.34 -0.02062 -0.18242 0.00000
1019.48 0.74045 0.74045 43.38395 31.04 0.00 31.04 -0.02062 -0.16339 0.00000
1021.05 0.74065 0.74065 42.58755 32.45 0.00 32.45 -0.02062 -0.14659 0.00000
1024.40 0.56456 0.56456 4.83586 31.42 0.00 31.42 0.10438 0.46382 0.00000
1026.04 0.56471 0.56471 6.87246 28.41 0.00 28.41 0.10438 0.42153 0.00000
1029.48 0.56454 0.56454 8.65562 25.98 0.00 25.98 0.10438 0.38422 0.00000
1031.04 0.56440 0.56440 10.22894 24.04 0.00 24.04 0.10438 0.35129 0.00000
1034.40 0.47646 0.47646 -6.89186 21.41 0.00 21.41 0.16688 0.62004 0.00000
1036.04 0.47663 0.47663 -4.32473 18.23 0.00 18.23 0.16688 0.56673 0.00000
1039.48 0.47550 0.47550 -2.12093 15.70 0.00 15.70 0.16688 0.51968 0.00000
1041.04 0.47438 0.47438 -0.18206 13.72 0.00 13.72 0.16688 0.47818 0.00000
1044.40 0.73956 0.73956 57.18653 15.46 0.00 15.46 -0.02062 -0.45183 0.00000
1046.05 0.74033 0.74033 54.78838 20.23 0.00 20.23 -0.02062 -0.40110 0.00000
1049.48 0.73904 0.73904 52.57836 24.16 0.00 24.16 -0.02062 -0.35634 0.00000
1051.05 0.73780 0.73780 50.62300 27.39 0.00 27.39 -0.02062 -0.31684 0.00000
1054.40 0.73710 0.73710 48.91638 30.02 0.00 30.02 -0.02062 -0.28199 0.00000
1056.05 0.73645 0.73645 47.40915 32.16 0.00 32.16 -0.02062 -0.25124 0.00000
1059.48 0.73623 0.73623 46.09642 33.88 0.00 33.88 -0.02062 -0.22411 0.00000
1061.04 0.73604 0.73604 44.93825 35.24 0.00 35.24 -0.02062 -0.20017 0.00000
1064.41 0.56103 0.56103 6.93579 34.15 0.00 34.15 0.10438 0.41654 0.00000
1066.05 0.56227 0.56227 8.75787 31.06 0.00 31.06 0.10438 0.37981 0.00000
1069.48 0.56144 0.56144 10.27329 28.52 0.00 28.52 0.10438 0.34741 0.00000
1071.04 0.56065 0.56065 11.60806 26.45 0.00 26.45 0.10438 0.31882 0.00000
1074.41 0.73828 0.73828 49.93342 26.96 0.00 26.96 -0.02062 -0.30200 0.00000
1076.04 0.73964 0.73964 48.40989 29.57 0.00 29.57 -0.02062 -0.26890 0.00000
1079.48 0.73889 0.73889 46.97155 31.71 0.00 31.71 -0.02062 -0.23969 0.00000
1081.04 0.73816 0.73816 45.69942 33.43 0.00 33.43 -0.02062 -0.21392 0.00000
1084.40 0.65063 0.65063 26.11245 33.72 0.00 33.72 0.04188 0.10662 0.00000
1086.04 0.65119 0.65119 26.50496 32.85 0.00 32.85 0.04188 0.09900 0.00000
1089.48 0.64992 0.64992 26.76673 32.12 0.00 32.12 0.04188 0.09228 0.00000
1091.05 0.64866 0.64866 26.99074 31.50 0.00 31.50 0.04188 0.08635 0.00000
1094.40 0.73661 0.73661 45.75780 32.07 0.00 32.07 -0.02062 -0.21668 0.00000
1096.05 0.73647 0.73647 44.64393 33.62 0.00 33.62 -0.02062 -0.19361 0.00000
1099.48 0.73581 0.73581 43.63531 34.86 0.00 34.86 -0.02062 -0.17326 0.00000
1101.05 0.73520 0.73520 42.74425 35.84 0.00 35.84 -0.02062 -0.15530 0.00000
1104.40 0.64779 0.64779 23.49365 35.52 0.00 35.52 0.04188 0.15834 0.00000
1106.04 0.64847 0.64847 24.18392 34.14 0.00 34.14 0.04188 0.14463 0.00000
1109.48 0.64864 0.64864 24.77274 33.01 0.00 33.01 0.04188 0.13255 0.00000
1111.05 0.64881 0.64881 25.29292 32.07 0.00 32.07 0.04188 0.12188 0.00000
1114.40 1.17618 1.17618 136.82300 37.83 0.00 37.83 -0.33312 -1.67430 0.00000
1116.04 1.17479 1.17479 129.18279 49.03 0.00 49.03 -0.33312 -1.51651 0.00000
1119.49 1.17605 1.17605 122.56047 58.07 0.00 58.07 -0.33312 -1.37729 0.00000
1121.05 1.17729 1.17729 116.72351 65.31 0.00 65.31 -0.33312 -1.25445 0.00000
1124.40 0.64886 0.64886 0.39151 64.52 0.00 64.52 0.04188 0.64071 0.00000
1126.04 0.64917 0.64917 3.78767 57.17 0.00 57.17 0.04188 0.57026 0.00000
1129.48 0.64940 0.64940 6.78251 51.07 0.00 51.07 0.04188 0.50809 0.00000
1131.05 0.64960 0.64960 9.42523 46.01 0.00 46.01 0.04188 0.45324 0.00000
1134.40 0.47190 0.47190 -25.36982 39.66 0.00 39.66 0.16688 1.00044 0.00000
1136.05 0.47052 0.47052 -20.72867 32.28 0.00 32.28 0.16688 0.90237 0.00000
1139.48 0.47130 0.47130 -16.53789 26.29 0.00 26.29 0.16688 0.81584 0.00000
1141.05 0.47205 0.47205 -12.83707 21.47 0.00 21.47 0.16688 0.73949 0.00000
1144.41 1.08797 1.08797 120.01916 25.25 0.00 25.25 -0.27062 -1.41243 0.00000
1146.05 1.08700 1.08700 113.52505 36.02 0.00 36.02 -0.27062 -1.27810 0.00000
1149.48 1.08840 1.08840 107.90279 44.81 0.00 44.81 -0.27062 -1.15958 0.00000
1151.05 1.08978 1.08978 102.94899 51.94 0.00 51.94 -0.27062 -1.05499 0.00000
1154.40 0.56202 0.56202 -12.57760 51.14 0.00 51.14 0.10438 0.82405 0.00000
1156.04 0.56296 0.56296 -8.46847 43.89 0.00 43.89 0.10438 0.73938 0.00000
1159.48 0.56168 0.56168 -4.94357 37.94 0.00 37.94 0.10438 0.66468 0.00000
1161.04 0.56042 0.56042 -1.84037 33.07 0.00 33.07 0.10438 0.59876 0.00000
1164.41 1.00024 1.00024 93.53355 34.58 0.00 34.58 -0.20812 -0.94838 0.00000
1166.05 0.99947 0.99947 89.31654 41.26 0.00 41.26 -0.20812 -0.86129 0.00000
1169.48 1.00057 1.00057 85.68062 46.70 0.00 46.70 -0.20812 -0.78444 0.00000
1171.04 1.00165 1.00165 82.47806 51.10 0.00 51.10 -0.20812 -0.71664 0.00000
1174.41 0.64894 0.64894 5.49993 50.26 0.00 50.26 0.04188 0.53436 0.00000
1176.04 0.64873 0.64873 8.27089 45.16 0.00 45.16 0.04188 0.47642 0.00000
1179.48 0.64863 0.64863 10.71978 40.97 0.00 40.97 0.04188 0.42530 0.00000
1181.05 0.64851 0.64851 12.87923 37.53 0.00 37.53 0.04188 0.38019 0.00000
1184.41 0.82377 0.82377 51.79084 36.92 0.00 36.92 -0.08312 -0.25520 0.00000
1186.04 0.82285 0.82285 50.77491 38.61 0.00 38.61 -0.08312 -0.23496 0.00000
1189.48 0.82199 0.82199 49.87611 39.99 0.00 39.99 -0.08312 -0.21709 0.00000
1191.05 0.82117 0.82117 49.07997 41.11 0.00 41.11 -0.08312 -0.20133 0.00000
1194.40 0.99613 0.99613 85.39885 44.18 0.00 44.18 -0.20812 -0.78301 0.00000
1196.04 0.99491 0.99491 82.09396 48.84 0.00 48.84 -0.20812 -0.71538 0.00000
1199.48 0.99535 0.99535 79.25069 52.58 0.00 52.58 -0.20812 -0.65570 0.00000
1201.05 0.99576 0.99576 76.74277 55.57 0.00 55.57 -0.20812 -0.60305 0.00000
1204.40 0.81862 0.81862 37.42141 55.75 0.00 55.75 -0.08312 0.03900 0.00000
1206.04 0.81773 0.81773 38.06857 53.63 0.00 53.63 -0.08312 0.02464 0.00000
1209.49 0.81765 0.81765 38.67312 51.84 0.00 51.84 -0.08312 0.01196 0.00000
1211.05 0.81756 0.81756 39.20600 50.32 0.00 50.32 -0.08312 0.00077 0.00000
1214.40 0.55404 0.55404 -15.85174 45.77 0.00 45.77 0.10438 0.88428 0.00000
1216.04 0.55485 0.55485 -11.40876 38.78 0.00 38.78 0.10438 0.79253 0.00000
1219.48 0.55537 0.55537 -7.49774 33.11 0.00 33.11 0.10438 0.71157 0.00000
1221.04 0.55586 0.55586 -4.04521 28.53 0.00 28.53 0.10438 0.64014 0.00000
1224.40 0.55703 0.55703 -0.96349 24.88 0.00 24.88 0.10438 0.57710 0.00000
1226.04 0.55819 0.55819 1.76179 22.00 0.00 22.00 0.10438 0.52149 0.00000
1229.48 0.55753 0.55753 4.08539 19.76 0.00 19.76 0.10438 0.47242 0.00000
1231.05 0.55692 0.55692 6.13464 18.03 0.00 18.03 0.10438 0.42912 0.00000
1234.40 0.82191 0.82191 63.57004 20.01 0.00 20.01 -0.08312 -0.50247 0.00000
1236.04 0.82249 0.82249 61.22986 25.00 0.00 25.00 -0.08312 -0.45313 0.00000
1239.48 0.82249 0.82249 59.14052 29.14 0.00 29.14 -0.08312 -0.40960 0.00000
1241.05 0.82251 0.82251 57.29771 32.56 0.00 32.56 -0.08312 -0.37119 0.00000
1244.40 1.08682 1.08682 111.24043 38.64 0.00 38.64 -0.27062 -1.23069 0.00000
1246.05 1.08677 1.08677 105.81657 46.87 0.00 46.87 -0.27062 -1.11774 0.00000
1249.48 1.08612 1.08612 101.00171 53.52 0.00 53.52 -0.27062 -1.01808 0.00000
1251.04 1.08552 1.08552 96.75176 58.85 0.00 58.85 -0.27062 -0.93014 0.00000
1254.41 0.64393 0.64393 0.36054 57.64 0.00 57.64 0.04188 0.63642 0.00000
1256.04 0.64297 0.64297 3.67178 51.10 0.00 51.10 0.04188 0.56647 0.00000
1259.48 0.64389 0.64389 6.67843 45.70 0.00 45.70 0.04188 0.50476 0.00000
1261.04 0.64478 0.64478 9.33529 41.26 0.00 41.26 0.04188 0.45030 0.00000
1264.41 0.64526 0.64526 11.66434 37.64 0.00 37.64 0.04188 0.40225 0.00000
1266.04 0.64569 0.64569 13.72007 34.71 0.00 34.71 0.04188 0.35985 0.00000
1269.48 0.64668 0.64668 15.56338 32.35 0.00 32.35 0.04188 0.32244 0.00000
1271.05 0.64766 0.64766 17.19484 30.47 0.00 30.47 0.04188 0.28943 0.00000
1274.40 0.56090 0.56090 0.13437 27.90 0.00 27.90 0.10438 0.55810 0.00000
1276.04 0.56227 0.56227 2.76196 24.79 0.00 24.79 0.10438 0.50472 0.00000
1279.48 0.56169 0.56169 4.99502 22.33 0.00 22.33 0.10438 0.45762 0.00000
1281.05 0.56113 0.56113 6.96329 20.41 0.00 20.41 0.10438 0.41607 0.00000
1284.40 0.82459 0.82459 64.25153 22.19 0.00 22.19 -0.08312 -0.51399 0.00000
1286.04 0.82368 0.82368 61.77477 27.00 0.00 27.00 -0.08312 -0.46330 0.00000
1289.48 0.82466 0.82466 59.67523 30.97 0.00 30.97 -0.08312 -0.41857 0.00000
1291.04 0.82560 0.82560 57.82584 34.23 0.00 34.23 -0.08312 -0.37911 0.00000
1294.40 0.64903 0.64903 19.09107 34.73 0.00 34.73 0.04188 0.25130 0.00000
1296.04 0.64876 0.64876 20.26056 32.96 0.00 32.96 0.04188 0.22666 0.00000
1299.49 0.64776 0.64776 21.25614 31.52 0.00 31.52 0.04188 0.20492 0.00000
1301.04 0.64679 0.64679 22.13046 30.37 0.00 30.37 0.04188 0.18574 0.00000
1304.40 0.47149 0.47149 -14.05980 27.27 0.00 27.27 0.16688 0.76440 0.00000
1306.04 0.47243 0.47243 -10.64060 22.61 0.00 22.61 0.16688 0.69411 0.00000
1309.48 0.47168 0.47168 -7.69915 18.87 0.00 18.87 0.16688 0.63208 0.00000
1311.04 0.47099 0.47099 -5.10510 15.90 0.00 15.90 0.16688 0.57735 0.00000
1314.40 0.73486 0.73486 52.76059 16.83 0.00 16.83 -0.02062 -0.36432 0.00000
1316.05 0.73435 0.73435 50.79539 20.94 0.00 20.94 -0.02062 -0.32389 0.00000
1319.48 0.73431 0.73431 49.08099 24.35 0.00 24.35 -0.02062 -0.28821 0.00000
1321.04 0.73425 0.73425 47.56712 27.17 0.00 27.17 -0.02062 -0.25673 0.00000
1324.41 0.90987 0.90987 83.25186 31.67 0.00 31.67 -0.14562 -0.82454 0.00000
1326.04 0.90926 0.90926 79.38832 37.51 0.00 37.51 -0.14562 -0.74467 0.00000
1329.48 0.90979 0.90979 76.03095 42.24 0.00 42.24 -0.14562 -0.67419 0.00000
1331.04 0.91028 0.91028 73.06989 46.04 0.00 46.04 -0.14562 -0.61201 0.00000
1334.41 0.46880 0.46880 -22.22555 43.62 0.00 43.62 0.16688 0.93183 0.00000
1336.04 0.46798 0.46798 -17.94505 36.12 0.00 36.12 0.16688 0.84184 0.00000
1339.48 0.46687 0.46687 -14.18696 29.98 0.00 29.98 0.16688 0.76243 0.00000
1341.04 0.46577 0.46577 -10.87665 24.98 0.00 24.98 0.16688 0.69236 0.00000
1344.41 0.72935 0.72935 47.62510 24.20 0.00 24.20 -0.02062 -0.26284 0.00000
1346.04 0.72856 0.72856 46.21961 26.88 0.00 26.88 -0.02062 -0.23434 0.00000
1349.48 0.72927 0.72927 45.04644 29.08 0.00 29.08 -0.02062 -0.20920 0.00000
1351.05 0.72994 0.72994 44.01372 30.90 0.00 30.90 -0.02062 -0.18702 0.00000
1354.40 0.37617 0.37617 -31.08336 28.03 0.00 28.03 0.22938 1.02374 0.00000
1356.04 0.37490 0.37490 -26.65845 21.33 0.00 21.33 0.22938 0.93028 0.00000
1359.48 0.37403 0.37403 -22.74210 15.92 0.00 15.92 0.22938 0.84782 0.00000
1361.05 0.37323 0.37323 -19.28793 11.57 0.00 11.57 0.22938 0.77506 0.00000
1364.40 0.81506 0.81506 76.47177 13.57 0.00 13.57 -0.08312 -0.77811 0.00000
1366.04 0.81623 0.81623 72.60374 20.75 0.00 20.75 -0.08312 -0.69634 0.00000
1369.48 0.81544 0.81544 69.10276 26.64 0.00 26.64 -0.08312 -0.62420 0.00000
1371.05 0.81472 0.81472 66.01275 31.45 0.00 31.45 -0.08312 -0.56054 0.00000
1374.40 0.63805 0.63805 26.24843 33.18 0.00 33.18 0.04188 0.09121 0.00000
1376.04 0.63768 0.63768 26.50907 32.38 0.00 32.38 0.04188 0.08541 0.00000
1379.48 0.63748 0.63748 26.74553 31.70 0.00 31.70 0.04188 0.08029 0.00000
1381.05 0.63728 0.63728 26.95278 31.13 0.00 31.13 0.04188 0.07577 0.00000
1384.40 0.63717 0.63717 27.13896 30.65 0.00 30.65 0.04188 0.07178 0.00000
1386.04 0.63709 0.63709 27.30396 30.25 0.00 30.25 0.04188 0.06826 0.00000
1389.49 0.63654 0.63654 27.42624 29.91 0.00 29.91 0.04188 0.06516 0.00000
1391.06 0.63605 0.63605 27.53416 29.62 0.00 29.62 0.04188 0.06242 0.00000
1394.15 0.63501 0.63501 27.60037 29.38 0.00 29.38 0.04188 0.06000 0.00000
1396.41 0.54583 0.54583 9.12816 28.09 0.00 28.09 0.10438 0.35566 0.00000
1399.48 0.54425 0.54425 10.47142 25.93 0.00 25.93 0.10438 0.32610 0.00000
1401.05 0.54269 0.54269 11.64847 24.18 0.00 24.18 0.10438 0.30001 0.00000
1404.03 0.54330 0.54330 12.78229 22.78 0.00 22.78 0.10438 0.27700 0.00000
1406.41 0.72014 0.72014 50.83384 23.84 0.00 23.84 -0.02062 -0.33890 0.00000
1409.49 0.72029 0.72029 49.04387 26.91 0.00 26.91 -0.02062 -0.30146 0.00000
1411.05 0.72045 0.72045 47.46581 29.42 0.00 29.42 -0.02062 -0.26842 0.00000
1414.03 0.72017 0.72017 46.05276 31.46 0.00 31.46 -0.02062 -0.23926 0.00000
1416.41 1.07245 1.07245 118.90395 37.46 0.00 37.46 -0.27062 -1.40472 0.00000
1419.49 1.07288 1.07288 112.52058 46.67 0.00 46.67 -0.27062 -1.27130 0.00000
1421.04 1.07328 1.07328 106.88894 54.08 0.00 54.08 -0.27062 -1.15357 0.00000
1424.03 1.07422 1.07422 101.94791 60.01 0.00 60.01 -0.27062 -1.04969 0.00000
1426.42 0.89885 0.89885 60.54221 62.50 0.00 62.50 -0.14562 -0.36245 0.00000
1429.48 0.90003 0.90003 59.37455 62.21 0.00 62.21 -0.14562 -0.33694 0.00000
1431.04 0.90119 0.90119 58.35002 61.81 0.00 61.81 -0.14562 -0.31443 0.00000
1434.04 0.90254 0.90254 57.46136 61.35 0.00 61.35 -0.14562 -0.29457 0.00000
1436.41 0.99198 0.99198 75.20759 61.94 0.00 61.94 -0.20812 -0.57484 0.00000
1439.50 0.99306 0.99306 73.18860 63.38 0.00 63.38 -0.20812 -0.53170 0.00000
1441.05 0.99412 0.99412 71.41237 64.43 0.00 64.43 -0.20812 -0.49363 0.00000
1444.03 0.99493 0.99493 69.83878 65.16 0.00 65.16 -0.20812 -0.46004 0.00000
1446.41 0.64314 0.64314 -5.64616 61.27 0.00 61.27 0.04188 0.76077 0.00000
1449.48 0.64345 0.64345 -1.57164 53.64 0.00 53.64 0.04188 0.67619 0.00000
1451.06 0.64374 0.64374 2.02414 47.35 0.00 47.35 0.04188 0.60157 0.00000
1454.04 0.64493 0.64493 5.24182 42.21 0.00 42.21 0.04188 0.53572 0.00000
1456.41 0.64610 0.64610 8.08671 38.03 0.00 38.03 0.04188 0.47762 0.00000
1459.48 0.64567 0.64567 10.52706 34.65 0.00 34.65 0.04188 0.42636 0.00000
1461.05 0.64527 0.64527 12.67881 31.94 0.00 31.94 0.04188 0.38112 0.00000
1464.03 0.64444 0.64444 14.55470 29.78 0.00 29.78 0.04188 0.34121 0.00000
1466.41 0.99620 0.99620 90.30624 32.45 0.00 32.45 -0.20812 -0.88518 0.00000
1469.49 0.99725 0.99725 86.53326 39.03 0.00 39.03 -0.20812 -0.80553 0.00000
1471.04 0.99828 0.99828 83.20925 44.42 0.00 44.42 -0.20812 -0.73524 0.00000
1474.03 0.99804 0.99804 80.22073 48.81 0.00 48.81 -0.20812 -0.67323 0.00000
1476.41 0.99780 0.99780 77.58276 52.35 0.00 52.35 -0.20812 -0.61851 0.00000
1479.49 0.99854 0.99854 75.30077 55.19 0.00 55.19 -0.20812 -0.57023 0.00000
1481.05 0.99926 0.99926 73.29066 57.43 0.00 57.43 -0.20812 -0.52763 0.00000
1484.04 0.99819 0.99819 71.43495 59.19 0.00 59.19 -0.20812 -0.49004 0.00000
1486.42 0.64456 0.64456 -4.30754 56.18 0.00 56.18 0.04188 0.73430 0.00000
1489.48 0.64323 0.64323 -0.46120 49.29 0.00 49.29 0.04188 0.65284 0.00000
1491.05 0.64195 0.64195 2.92728 43.63 0.00 43.63 0.04188 0.58096 0.00000
1494.04 0.64222 0.64222 5.98489 39.02 0.00 39.02 0.04188 0.51754 0.00000
1496.41 0.81876 0.81876 45.73314 37.47 0.00 37.47 -0.08312 -0.13401 0.00000
1499.49 0.81850 0.81850 45.43291 38.43 0.00 38.43 -0.08312 -0.12802 0.00000
1501.04 0.81826 0.81826 45.16805 39.24 0.00 39.24 -0.08312 -0.12274 0.00000
1504.04 0.81689 0.81689 44.87854 39.92 0.00 39.92 -0.08312 -0.11808 0.00000
1506.41 0.72740 0.72740 26.09134 39.40 0.00 39.40 -0.02062 0.18383 0.00000
1509.49 0.72718 0.72718 27.23553 37.90 0.00 37.90 -0.02062 0.15977 0.00000
1511.05 0.72699 0.72699 28.24530 36.70 0.00 36.70 -0.02062 0.13855 0.00000
1514.04 0.72607 0.72607 29.09988 35.76 0.00 35.76 -0.02062 0.11982 0.00000
1516.42 0.81334 0.81334 48.37591 36.11 0.00 36.11 -0.08312 -0.19449 0.00000
1519.48 0.81254 0.81254 47.70869 37.51 0.00 37.51 -0.08312 -0.18139 0.00000
1521.04 0.81176 0.81176 47.11646 38.68 0.00 38.68 -0.08312 -0.16983 0.00000
1524.05 0.81242 0.81242 46.65820 39.64 0.00 39.64 -0.08312 -0.15963 0.00000
1526.41 0.72492 0.72492 27.73206 39.36 0.00 39.36 -0.02062 0.14716 0.00000
1529.48 0.72419 0.72419 28.64484 38.04 0.00 38.04 -0.02062 0.12742 0.00000
1531.04 0.72348 0.72348 29.44652 36.98 0.00 36.98 -0.02062 0.11001 0.00000
1534.04 0.72406 0.72406 30.21199 36.14 0.00 36.14 -0.02062 0.09464 0.00000
1536.41 0.81275 0.81275 49.41429 36.57 0.00 36.57 -0.08312 -0.21672 0.00000
1539.48 0.81377 0.81377 48.70899 38.04 0.00 38.04 -0.08312 -0.20100 0.00000
1541.05 0.81478 0.81478 48.09157 39.26 0.00 39.26 -0.08312 -0.18713 0.00000
1544.04 0.81391 0.81391 47.46279 40.26 0.00 40.26 -0.08312 -0.17490 0.00000
1546.42 0.72492 0.72492 28.37887 39.99 0.00 39.99 -0.02062 0.13370 0.00000
1549.48 0.72622 0.72622 29.31256 38.68 0.00 38.68 -0.02062 0.11554 0.00000
1551.05 0.72751 0.72751 30.14345 37.62 0.00 37.62 -0.02062 0.09952 0.00000
1554.04 0.72686 0.72686 30.79090 36.78 0.00 36.78 -0.02062 0.08539 0.00000
1556.41 0.63809 0.63809 12.83440 35.02 0.00 35.02 0.04188 0.37071 0.00000
1559.48 0.63768 0.63768 14.67183 32.52 0.00 32.52 0.04188 0.33202 0.00000
1561.04 0.63732 0.63732 16.29279 30.51 0.00 30.51 0.04188 0.29789 0.00000
1564.03 0.63779 0.63779 17.76129 28.93 0.00 28.93 0.04188 0.26777 0.00000
1566.41 0.90266 0.90266 74.63289 30.96 0.00 30.96 -0.14562 -0.65219 0.00000
1569.48 0.90358 0.90358 71.81656 35.93 0.00 35.93 -0.14562 -0.59259 0.00000
1571.08 0.90446 0.90446 69.33439 40.01 0.00 40.01 -0.14562 -0.54001 0.00000
1574.04 0.90498 0.90498 67.13248 43.33 0.00 43.33 -0.14562 -0.49361 0.00000
1576.41 0.81733 0.81733 46.66618 44.92 0.00 44.92 -0.08312 -0.15488 0.00000
1579.48 0.81878 0.81878 46.33048 45.11 0.00 45.11 -0.08312 -0.14644 0.00000
1581.04 0.82020 0.82020 46.04122 45.24 0.00 45.24 -0.08312 -0.13899 0.00000
1584.03 0.81991 0.81991 45.71156 45.31 0.00 45.31 -0.08312 -0.13242 0.00000
1586.41 0.99593 0.99593 82.47026 47.52 0.00 47.52 -0.20812 -0.72220 0.00000
1589.50 0.99601 0.99601 79.57106 51.46 0.00 51.46 -0.20812 -0.66172 0.00000
1591.05 0.99608 0.99608 77.01295 54.62 0.00 54.62 -0.20812 -0.60836 0.00000
1594.03 0.99718 0.99718 74.80582 57.12 0.00 57.12 -0.20812 -0.56127 0.00000
1596.41 0.91012 0.91012 54.33839 58.00 0.00 58.00 -0.14562 -0.22193 0.00000
1599.49 0.90997 0.90997 53.90024 57.54 0.00 57.54 -0.14562 -0.21295 0.00000
1601.05 0.90984 0.90984 53.51389 57.09 0.00 57.09 -0.14562 -0.20503 0.00000
1604.04 0.91051 0.91051 53.21058 56.65 0.00 56.65 -0.14562 -0.19804 0.00000
1606.41 0.64674 0.64674 -2.62895 52.96 0.00 52.96 0.04188 0.70151 0.00000
1609.49 0.64707 0.64707 1.11210 46.64 0.00 46.64 0.04188 0.62390 0.00000
1611.05 0.64738 0.64738 4.41363 41.48 0.00 41.48 0.04188 0.55543 0.00000
1614.04 0.64644 0.64644 7.26843 37.29 0.00 37.29 0.04188 0.49501 0.00000
1616.41 0.64553 0.64553 9.78364 33.90 0.00 33.90 0.04188 0.44170 0.00000
1619.48 0.64657 0.64657 12.09174 31.20 0.00 31.20 0.04188 0.39466 0.00000
1621.05 0.64761 0.64761 14.13385 29.07 0.00 29.07 0.04188 0.35316 0.00000
1624.04 0.64769 0.64769 15.89563 27.42 0.00 27.42 0.04188 0.31654 0.00000
1626.42 0.55963 0.55963 -1.07473 25.07 0.00 25.07 0.10438 0.58202 0.00000
1629.48 0.56044 0.56044 1.66138 22.15 0.00 22.15 0.10438 0.52582 0.00000
1631.05 0.56122 0.56122 4.07909 19.88 0.00 19.88 0.10438 0.47624 0.00000
1634.03 0.56108 0.56108 6.17231 18.15 0.00 18.15 0.10438 0.43249 0.00000
1636.41 0.82536 0.82536 63.59287 20.12 0.00 20.12 -0.08312 -0.49949 0.00000
1639.50 0.82574 0.82574 61.25973 25.09 0.00 25.09 -0.08312 -0.45051 0.00000
1641.05 0.82608 0.82608 59.20181 29.23 0.00 29.23 -0.08312 -0.40729 0.00000
1644.04 0.82672 0.82672 57.40175 32.65 0.00 32.65 -0.08312 -0.36915 0.00000
1646.41 0.38663 0.38663 -36.80857 30.02 0.00 30.02 0.22938 1.15347 0.00000
1649.49 0.38700 0.38700 -31.57205 22.46 0.00 22.46 0.22938 1.04475 0.00000
1651.06 0.38735 0.38735 -26.95086 16.38 0.00 16.38 0.22938 0.94883 0.00000
1654.04 0.38754 0.38754 -22.87877 11.52 0.00 11.52 0.22938 0.86419 0.00000
1656.41 0.56399 0.56399 17.76381 9.86 0.00 9.86 0.10438 0.19391 0.00000
1659.48 0.56294 0.56294 18.21877 10.82 0.00 10.82 0.10438 0.18338 0.00000
1661.05 0.56189 0.56189 18.61481 11.71 0.00 11.71 0.10438 0.17408 0.00000
1664.03 0.56256 0.56256 19.04057 12.55 0.00 12.55 0.10438 0.16588 0.00000
1666.42 0.47506 0.47506 0.89361 12.25 0.00 12.25 0.16688 0.45644 0.00000
1669.49 0.47433 0.47433 2.49375 11.01 0.00 11.01 0.16688 0.42237 0.00000
1671.05 0.47361 0.47361 3.90222 10.09 0.00 10.09 0.16688 0.39232 0.00000
1674.03 0.47445 0.47445 5.21530 9.44 0.00 9.44 0.16688 0.36579 0.00000
1676.41 0.65153 0.65153 43.42681 11.19 0.00 11.19 0.04188 -0.25320 0.00000
1679.48 0.65035 0.65035 41.70402 14.88 0.00 14.88 0.04188 -0.21848 0.00000
1681.05 0.64917 0.64917 40.17729 17.95 0.00 17.95 0.04188 -0.18785 0.00000
1684.03 0.65007 0.65007 38.92284 20.49 0.00 20.49 0.04188 -0.16083 0.00000
1686.42 0.82720 0.82720 74.86891 24.77 0.00 24.77 -0.08312 -0.73257 0.00000
1689.48 0.82640 0.82640 71.16278 30.45 0.00 30.45 -0.08312 -0.65616 0.00000
1691.05 0.82562 0.82562 67.88977 35.04 0.00 35.04 -0.08312 -0.58875 0.00000
1694.04 0.82690 0.82690 65.09578 38.74 0.00 38.74 -0.08312 -0.52926 0.00000
1696.41 0.56372 0.56372 7.06132 38.43 0.00 38.43 0.10438 0.41661 0.00000
1699.48 0.56395 0.56395 8.83553 34.84 0.00 34.84 0.10438 0.37987 0.00000
1701.04 0.56415 0.56415 10.40109 31.88 0.00 31.88 0.10438 0.34746 0.00000
1704.04 0.56260 0.56260 11.69940 29.43 0.00 29.43 0.10438 0.31886 0.00000
1706.42 0.82547 0.82547 68.41042 30.68 0.00 30.68 -0.08312 -0.59975 0.00000
1709.48 0.82492 0.82492 65.46677 34.94 0.00 34.94 -0.08312 -0.53897 0.00000
1711.04 0.82437 0.82437 62.86646 38.38 0.00 38.38 -0.08312 -0.48534 0.00000
1714.03 0.82413 0.82413 60.58338 41.13 0.00 41.13 -0.08312 -0.43802 0.00000
1716.41 0.73578 0.73578 40.04430 42.21 0.00 42.21 -0.02062 -0.09848 0.00000
1719.48 0.73560 0.73560 39.59599 41.93 0.00 41.93 -0.02062 -0.08932 0.00000
1721.04 0.73544 0.73544 39.20023 41.63 0.00 41.63 -0.02062 -0.08124 0.00000
1724.03 0.73513 0.73513 38.84340 41.32 0.00 41.32 -0.02062 -0.07411 0.00000
1726.41 0.82300 0.82300 57.05333 42.10 0.00 42.10 -0.08312 -0.36561 0.00000
1729.48 0.82230 0.82230 55.42445 43.77 0.00 43.77 -0.08312 -0.33237 0.00000
1731.04 0.82166 0.82166 53.98616 45.05 0.00 45.05 -0.08312 -0.30305 0.00000
1734.03 0.82017 0.82017 52.67254 46.03 0.00 46.03 -0.08312 -0.27718 0.00000
1736.41 0.81870 0.81870 51.50650 46.74 0.00 46.74 -0.08312 -0.25435 0.00000
1739.48 0.81894 0.81894 50.55069 47.24 0.00 47.24 -0.08312 -0.23420 0.00000
1741.04 0.81914 0.81914 49.70754 47.58 0.00 47.58 -0.08312 -0.21643 0.00000
1744.03 0.82000 0.82000 48.99561 47.79 0.00 47.79 -0.08312 -0.20075 0.00000
1746.41 0.46827 0.46827 -25.72784 43.54 0.00 43.54 0.16688 1.00427 0.00000
1749.48 0.46620 0.46620 -21.09867 35.66 0.00 35.66 0.16688 0.90575 0.00000
1751.05 0.46415 0.46415 -17.02427 29.22 0.00 29.22 0.16688 0.81882 0.00000
1754.04 0.46540 0.46540 -13.28275 24.00 0.00 24.00 0.16688 0.74212 0.00000
1756.41 0.73103 0.73103 45.59854 23.08 0.00 23.08 -0.02062 -0.21893 0.00000
1759.48 0.73231 0.73231 44.53974 25.67 0.00 25.67 -0.02062 -0.19560 0.00000
1761.04 0.73354 0.73354 43.61081 27.83 0.00 27.83 -0.02062 -0.17502 0.00000
1764.03 0.73254 0.73254 42.69077 29.63 0.00 29.63 -0.02062 -0.15685 0.00000
1766.41 0.55526 0.55526 4.82376 28.94 0.00 28.94 0.10438 0.45476 0.00000
1769.49 0.55571 0.55571 6.82443 26.22 0.00 26.22 0.10438 0.41354 0.00000
1771.05 0.55614 0.55614 8.59062 24.04 0.00 24.04 0.10438 0.37717 0.00000
1774.03 0.55566 0.55566 10.10793 22.32 0.00 22.32 0.10438 0.34507 0.00000
1776.41 0.55521 0.55521 11.44578 20.96 0.00 20.96 0.10438 0.31676 0.00000
1779.49 0.55434 0.55434 12.60330 19.91 0.00 19.91 0.10438 0.29177 0.00000
1781.04 0.55354 0.55354 13.62316 19.11 0.00 19.11 0.10438 0.26972 0.00000
1784.03 0.55471 0.55471 14.61285 18.52 0.00 18.52 0.10438 0.25027 0.00000
1786.44 0.55586 0.55586 15.49213 18.11 0.00 18.11 0.10438 0.23311 0.00000
1789.51 0.55666 0.55666 16.25743 17.85 0.00 17.85 0.10438 0.21796 0.00000
1791.05 0.55741 0.55741 16.93513 17.70 0.00 17.70 0.10438 0.20460 0.00000
1794.04 0.55636 0.55636 17.45032 17.64 0.00 17.64 0.10438 0.19281 0.00000
1796.40 0.73157 0.73157 54.94836 19.83 0.00 19.83 -0.02062 -0.41318 0.00000
1799.49 0.73262 0.73262 52.78170 23.83 0.00 23.83 -0.02062 -0.36700 0.00000
1801.05 0.73365 0.73365 50.87536 27.12 0.00 27.12 -0.02062 -0.32625 0.00000
1804.04 0.73294 0.73294 49.11531 29.81 0.00 29.81 -0.02062 -0.29029 0.00000
1806.41 0.82038 0.82038 66.08378 33.08 0.00 33.08 -0.08312 -0.55636 0.00000
1809.50 0.82050 0.82050 63.41692 36.81 0.00 36.81 -0.08312 -0.50069 0.00000
1811.06 0.82059 0.82059 61.06347 39.80 0.00 39.80 -0.08312 -0.45156 0.00000
1814.03 0.81917 0.81917 58.91444 42.18 0.00 42.18 -0.08312 -0.40822 0.00000
1816.41 0.72968 0.72968 38.48910 42.94 0.00 42.94 -0.02062 -0.07218 0.00000
1819.50 0.73073 0.73073 38.24825 42.41 0.00 42.41 -0.02062 -0.06611 0.00000
1821.04 0.73175 0.73175 38.04034 41.90 0.00 41.90 -0.02062 -0.06076 0.00000
1824.03 0.73079 0.73079 37.76781 41.43 0.00 41.43 -0.02062 -0.05604 0.00000
1826.41 0.72990 0.72990 37.52523 40.99 0.00 40.99 -0.02062 -0.05187 0.00000
1829.48 0.73081 0.73081 37.39223 40.57 0.00 40.57 -0.02062 -0.04820 0.00000
1831.05 0.73165 0.73165 37.27715 40.19 0.00 40.19 -0.02062 -0.04495 0.00000
1834.03 0.73252 0.73252 37.18134 39.84 0.00 39.84 -0.02062 -0.04209 0.00000
1836.41 0.73333 0.73333 37.09905 39.53 0.00 39.53 -0.02062 -0.03957 0.00000
1839.50 0.73317 0.73317 36.98423 39.23 0.00 39.23 -0.02062 -0.03734 0.00000
1841.04 0.73303 0.73303 36.88332 38.96 0.00 38.96 -0.02062 -0.03537 0.00000
1844.04 0.73177 0.73177 36.73933 38.71 0.00 38.71 -0.02062 -0.03364 0.00000
1846.42 0.37795 0.37795 -37.49371 34.11 0.00 34.11 0.22938 1.15907 0.00000
1849.48 0.37745 0.37745 -32.26774 25.99 0.00 25.99 0.22938 1.04970 0.00000
1851.04 0.37697 0.37697 -27.65823 19.41 0.00 19.41 0.22938 0.95319 0.00000
1854.03 0.37530 0.37530 -23.65104 14.11 0.00 14.11 0.22938 0.86803 0.00000
1856.41 0.63813 0.63813 35.45353 13.14 0.00 13.14 0.04188 -0.10049 0.00000
1859.50 0.63742 0.63742 34.61544 15.72 0.00 15.72 0.04188 -0.08374 0.00000
1861.04 0.63673 0.63673 33.87290 17.90 0.00 17.90 0.04188 -0.06896 0.00000
1864.04 0.63786 0.63786 33.30133 19.74 0.00 19.74 0.04188 -0.05592 0.00000
1866.42 0.46271 0.46271 -4.24637 19.13 0.00 19.13 0.16688 0.55117 0.00000
1869.48 0.46229 0.46229 -2.09629 16.51 0.00 16.51 0.16688 0.50596 0.00000
1871.04 0.46189 0.46189 -0.20059 14.43 0.00 14.43 0.16688 0.46607 0.00000
1874.04 0.46258 0.46258 1.52197 12.81 0.00 12.81 0.16688 0.43087 0.00000
1876.15 0.46324 0.46324 3.04481 11.57 0.00 11.57 0.16688 0.39981 0.00000
1879.85 0.55119 0.55119 22.87571 11.73 0.00 11.73 0.10438 0.07461 0.00000
1881.04 0.55104 0.55104 22.70029 13.04 0.00 13.04 0.10438 0.07811 0.00000
1884.03 0.55154 0.55154 22.57613 14.16 0.00 14.16 0.10438 0.08120 0.00000
1886.05 0.55202 0.55202 22.46852 15.15 0.00 15.15 0.10438 0.08393 0.00000
1889.85 0.72907 0.72907 59.43969 18.18 0.00 18.18 -0.02062 -0.50925 0.00000
1891.04 0.72985 0.72985 56.71764 22.88 0.00 22.88 -0.02062 -0.45177 0.00000
1894.04 0.73038 0.73038 54.30826 26.72 0.00 26.72 -0.02062 -0.40104 0.00000
1896.05 0.73088 0.73088 52.18433 29.84 0.00 29.84 -0.02062 -0.35629 0.00000
1899.85 0.81947 0.81947 68.83505 33.45 0.00 33.45 -0.08312 -0.61459 0.00000
1901.04 0.81993 0.81993 65.85583 37.43 0.00 37.43 -0.08312 -0.55207 0.00000
1904.04 0.82102 0.82102 63.26019 40.63 0.00 40.63 -0.08312 -0.49690 0.00000
1906.05 0.82210 0.82210 60.97539 43.15 0.00 43.15 -0.08312 -0.44822 0.00000
1909.85 0.82297 0.82297 58.95551 45.13 0.00 45.13 -0.08312 -0.40527 0.00000
1911.04 0.82379 0.82379 57.17577 46.65 0.00 46.65 -0.08312 -0.36737 0.00000
1914.03 0.82461 0.82461 55.60965 47.80 0.00 47.80 -0.08312 -0.33393 0.00000
1916.04 0.82537 0.82537 54.22988 48.64 0.00 48.64 -0.08312 -0.30442 0.00000
1919.86 0.38517 0.38517 -39.61973 43.77 0.00 43.77 0.22938 1.21058 0.00000
1921.04 0.38559 0.38559 -34.05901 34.29 0.00 34.29 0.22938 1.09515 0.00000
1924.03 0.38515 0.38515 -29.19080 26.54 0.00 26.54 0.22938 0.99329 0.00000
1926.04 0.38473 0.38473 -24.89721 20.23 0.00 20.23 0.22938 0.90342 0.00000
1929.85 0.64851 0.64851 34.45329 18.41 0.00 18.41 0.04188 -0.06926 0.00000
1931.04 0.64797 0.64797 33.79958 20.26 0.00 20.26 0.04188 -0.05619 0.00000
1934.04 0.64842 0.64842 33.26754 21.82 0.00 21.82 0.04188 -0.04465 0.00000
1936.05 0.64885 0.64885 32.79922 23.14 0.00 23.14 0.04188 -0.03447 0.00000
1939.85 1.09034 1.09034 125.03057 29.70 0.00 29.70 -0.27062 -1.51446 0.00000
1941.05 1.09120 1.09120 118.04784 40.51 0.00 40.51 -0.27062 -1.36813 0.00000
1944.03 1.09008 1.09008 111.79626 49.26 0.00 49.26 -0.27062 -1.23901 0.00000
1946.05 1.08901 1.08901 106.27659 56.29 0.00 56.29 -0.27062 -1.12508 0.00000
1949.85 1.17814 1.17814 120.02344 62.98 0.00 62.98 -0.33312 -1.32235 0.00000
1951.04 1.17912 1.17912 114.48420 69.37 0.00 69.37 -0.33312 -1.20597 0.00000
1954.03 1.17884 1.17884 109.54205 74.39 0.00 74.39 -0.33312 -1.10328 0.00000
1956.04 1.17858 1.17858 105.18039 78.26 0.00 78.26 -0.33312 -1.01268 0.00000
1959.85 0.65103 0.65103 -9.74437 74.67 0.00 74.67 0.04188 0.85404 0.00000
1961.04 0.65221 0.65221 -5.10115 65.01 0.00 65.01 0.04188 0.75849 0.00000
1964.03 0.65267 0.65267 -1.03259 57.00 0.00 57.00 0.04188 0.67418 0.00000
1966.05 0.65310 0.65310 2.55884 50.39 0.00 50.39 0.04188 0.59979 0.00000
1969.85 1.00463 1.00463 79.75939 49.30 0.00 49.30 -0.20812 -0.65702 0.00000
1971.04 1.00367 1.00367 77.17844 52.73 0.00 52.73 -0.20812 -0.60421 0.00000
1974.04 1.00278 1.00278 74.89867 55.47 0.00 55.47 -0.20812 -0.55761 0.00000
1976.04 1.00192 1.00192 72.88419 57.64 0.00 57.64 -0.20812 -0.51650 0.00000
1979.85 0.64858 0.64858 -2.99398 54.97 0.00 54.97 0.04188 0.71096 0.00000
1981.04 0.64777 0.64777 0.74534 48.37 0.00 48.37 0.04188 0.63224 0.00000
1984.04 0.64847 0.64847 4.11256 42.97 0.00 42.97 0.04188 0.56279 0.00000
1986.04 0.64914 0.64914 7.08650 38.57 0.00 38.57 0.04188 0.50150 0.00000
1989.85 0.73836 0.73836 28.25853 36.11 0.00 36.11 -0.02062 0.14964 0.00000
1991.05 0.73940 0.73940 29.27015 35.25 0.00 35.25 -0.02062 0.12961 0.00000
1994.03 0.74043 0.74043 30.16801 34.60 0.00 34.60 -0.02062 0.11193 0.00000
1996.04 0.74145 0.74145 30.96530 34.12 0.00 34.12 -0.02062 0.09634 0.00000
1999.85 0.83049 0.83049 50.19405 34.88 0.00 34.88 -0.08312 -0.21522 0.00000
2001.04 0.83139 0.83139 49.49105 36.64 0.00 36.64 -0.08312 -0.19968 0.00000
2004.03 0.83067 0.83067 48.79872 38.11 0.00 38.11 -0.08312 -0.18597 0.00000
2006.05 0.83001 0.83001 48.18627 39.33 0.00 39.33 -0.08312 -0.17387 0.00000
2009.85 0.74187 0.74187 29.14878 39.26 0.00 39.26 -0.02062 0.13460 0.00000
2011.04 0.74184 0.74184 30.02398 38.12 0.00 38.12 -0.02062 0.11634 0.00000
2014.03 0.74164 0.74164 30.78769 37.21 0.00 37.21 -0.02062 0.10023 0.00000
2016.04 0.74142 0.74142 31.45988 36.49 0.00 36.49 -0.02062 0.08601 0.00000
2019.85 0.65248 0.65248 13.49866 34.85 0.00 34.85 0.04188 0.37126 0.00000
2021.04 0.65170 0.65170 15.32130 32.44 0.00 32.44 0.04188 0.33251 0.00000
2024.03 0.65298 0.65298 17.02382 30.53 0.00 30.53 0.04188 0.29832 0.00000
2026.04 0.65424 0.65424 18.53257 29.03 0.00 29.03 0.04188 0.26815 0.00000
2029.85 0.92002 0.92002 75.45024 31.14 0.00 31.14 -0.14562 -0.65186 0.00000
2031.04 0.92141 0.92141 72.65821 36.19 0.00 36.19 -0.14562 -0.59230 0.00000
2034.03 0.92146 0.92146 70.13821 40.33 0.00 40.33 -0.14562 -0.53975 0.00000
2036.05 0.92150 0.92150 67.91417 43.71 0.00 43.71 -0.14562 -0.49338 0.00000
2039.85 0.56970 0.56970 -8.11245 42.08 0.00 42.08 0.10438 0.73871 0.00000
2041.05 0.57036 0.57036 -4.49872 36.39 0.00 36.39 0.10438 0.66408 0.00000
2044.04 0.56958 0.56958 -1.37546 31.76 0.00 31.76 0.10438 0.59823 0.00000
2046.04 0.56882 0.56882 1.37695 28.03 0.00 28.03 0.10438 0.54013 0.00000
2049.84 0.56787 0.56787 3.79197 25.03 0.00 25.03 0.10438 0.48887 0.00000
2051.04 0.56694 0.56694 5.91892 22.66 0.00 22.66 0.10438 0.44363 0.00000
2054.03 0.56773 0.56773 7.87254 20.81 0.00 20.81 0.10438 0.40372 0.00000
2056.06 0.56847 0.56847 9.59867 19.39 0.00 19.39 0.10438 0.36850 0.00000
2059.85 0.65703 0.65703 29.63515 19.41 0.00 19.41 0.04188 0.03963 0.00000
2061.04 0.65744 0.65744 29.64202 20.62 0.00 20.62 0.04188 0.03990 0.00000
2064.04 0.65645 0.65645 29.58335 21.67 0.00 21.67 0.04188 0.04013 0.00000
2066.04 0.65548 0.65548 29.52680 22.60 0.00 22.60 0.04188 0.04034 0.00000
2069.85 0.74325 0.74325 48.02521 24.50 0.00 24.50 -0.02062 -0.25728 0.00000
2071.04 0.74291 0.74291 46.67248 27.19 0.00 27.19 -0.02062 -0.22944 0.00000
2074.04 0.74301 0.74301 45.49821 29.41 0.00 29.41 -0.02062 -0.20487 0.00000
2076.04 0.74311 0.74311 44.46269 31.25 0.00 31.25 -0.02062 -0.18319 0.00000
2079.85 0.65531 0.65531 25.03615 31.66 0.00 31.66 0.04188 0.13373 0.00000
2081.04 0.65561 0.65561 25.56925 30.91 0.00 30.91 0.04188 0.12292 0.00000
2084.04 0.65660 0.65660 26.07453 30.31 0.00 30.31 0.04188 0.11339 0.00000
2086.04 0.65758 0.65758 26.52520 29.84 0.00 29.84 0.04188 0.10497 0.00000
2089.85 0.65729 0.65729 26.86738 29.47 0.00 29.47 0.04188 0.09755 0.00000
2091.05 0.65702 0.65702 27.16916 29.18 0.00 29.18 0.04188 0.09100 0.00000
2094.04 0.65792 0.65792 27.48980 28.96 0.00 28.96 0.04188 0.08522 0.00000
2096.05 0.65880 0.65880 27.77644 28.81 0.00 28.81 0.04188 0.08012 0.00000
2099.85 0.30621 0.30621 -46.10843 24.34 0.00 24.34 0.29188 1.26680 0.00000
2101.05 0.30612 0.30612 -40.60696 16.38 0.00 16.38 0.29188 1.15210 0.00000
2104.04 0.30658 0.30658 -35.72723 9.96 0.00 9.96 0.29188 1.05090 0.00000
2106.05 0.30702 0.30702 -31.41968 4.84 0.00 4.84 0.29188 0.96160 0.00000
2109.86 0.39550 0.39550 -9.09654 1.88 0.00 1.88 0.22938 0.58501 0.00000
2111.04 0.39584 0.39584 -7.07218 0.71 0.00 0.71 0.22938 0.54317 0.00000
2114.04 0.39576 0.39576 -5.30371 -0.10 0.00 -0.10 0.22938 0.50626 0.00000
2116.04 0.39569 0.39569 -3.74353 -0.62 0.00 -0.62 0.22938 0.47368 0.00000
2119.85 1.01266 1.01266 127.30914 6.72 0.00 6.72 -0.20812 -1.63962 0.00000
2121.04 1.01273 1.01273 119.22892 20.43 0.00 20.43 -0.20812 -1.47121 0.00000
2124.03 1.01225 1.01225 112.07347 31.63 0.00 31.63 -0.20812 -1.32261 0.00000
2126.04 1.01181 1.01181 105.75877 40.73 0.00 40.73 -0.20812 -1.19149 0.00000
2129.85 0.83655 0.83655 63.20471 45.87 0.00 45.87 -0.08312 -0.48021 0.00000
2131.04 0.83752 0.83752 61.00876 47.78 0.00 47.78 -0.08312 -0.43350 0.00000
2134.03 0.83616 0.83616 58.96503 49.22 0.00 49.22 -0.08312 -0.39228 0.00000
2136.05 0.83480 0.83480 57.15414 50.26 0.00 50.26 -0.08312 -0.35591 0.00000
2139.85 0.74634 0.74634 37.07343 49.89 0.00 49.89 -0.02062 -0.02602 0.00000
2141.04 0.74601 0.74601 37.02703 48.38 0.00 48.38 -0.02062 -0.02539 0.00000
2144.04 0.74685 0.74685 37.04041 47.04 0.00 47.04 -0.02062 -0.02483 0.00000
2146.05 0.74766 0.74766 37.05542 45.87 0.00 45.87 -0.02062 -0.02433 0.00000
2149.85 0.92318 0.92318 74.04768 47.01 0.00 47.01 -0.14562 -0.61948 0.00000
2151.04 0.92250 0.92250 71.33910 50.03 0.00 50.03 -0.14562 -0.56374 0.00000
2154.03 0.92158 0.92158 68.93407 52.39 0.00 52.39 -0.14562 -0.51455 0.00000
2156.04 0.92067 0.92067 66.80702 54.22 0.00 54.22 -0.14562 -0.47114 0.00000
2159.85 0.65666 0.65666 9.41395 52.32 0.00 52.32 0.04188 0.46054 0.00000
2161.04 0.65700 0.65700 11.79460 47.41 0.00 47.41 0.04188 0.41128 0.00000
2164.04 0.65817 0.65817 13.93688 43.35 0.00 43.35 0.04188 0.36782 0.00000
2166.04 0.65934 0.65934 15.83341 40.00 0.00 40.00 0.04188 0.32947 0.00000
2169.85 0.48312 0.48312 -19.58917 35.07 0.00 35.07 0.16688 0.89123 0.00000
2171.05 0.48315 0.48315 -15.49734 28.88 0.00 28.88 0.16688 0.80601 0.00000
2174.03 0.48221 0.48221 -11.93315 23.87 0.00 23.87 0.16688 0.73082 0.00000
2176.04 0.48127 0.48127 -8.79341 19.84 0.00 19.84 0.16688 0.66447 0.00000
2179.85 0.65807 0.65807 31.09075 18.82 0.00 18.82 0.04188 0.01034 0.00000
2181.04 0.65858 0.65858 30.93727 20.26 0.00 20.26 0.04188 0.01405 0.00000
2184.04 0.65931 0.65931 30.81542 21.50 0.00 21.50 0.04188 0.01733 0.00000
2186.04 0.66002 0.66002 30.71095 22.59 0.00 22.59 0.04188 0.02021 0.00000
2189.86 0.65846 0.65846 30.51332 23.54 0.00 23.54 0.04188 0.02276 0.00000
2191.04 0.65694 0.65694 30.33255 24.35 0.00 24.35 0.04188 0.02501 0.00000
2194.03 0.65760 0.65760 30.26917 25.05 0.00 25.05 0.04188 0.02699 0.00000
2196.05 0.65823 0.65823 30.21545 25.66 0.00 25.66 0.04188 0.02875 0.00000
2199.85 0.92360 0.92360 85.76104 29.46 0.00 29.46 -0.14562 -0.86309 0.00000
2201.04 0.92454 0.92454 81.75469 35.85 0.00 35.85 -0.14562 -0.77868 0.00000
2204.04 0.92330 0.92330 78.12032 41.04 0.00 41.04 -0.14562 -0.70421 0.00000
2206.05 0.92206 0.92206 74.90637 45.21 0.00 45.21 -0.14562 -0.63849 0.00000
2209.85 0.56990 0.56990 -1.95708 44.18 0.00 44.18 0.10438 0.61067 0.00000
2211.04 0.57021 0.57021 0.91688 38.92 0.00 38.92 0.10438 0.55111 0.00000
2214.04 0.57155 0.57155 3.50410 34.60 0.00 34.60 0.10438 0.49855 0.00000
2216.04 0.57286 0.57286 5.79293 31.08 0.00 31.08 0.10438 0.45218 0.00000
2219.86 1.01276 1.01276 100.34283 33.67 0.00 33.67 -0.20812 -1.07771 0.00000
2221.04 1.01210 1.01210 95.40038 41.22 0.00 41.22 -0.20812 -0.97541 0.00000
2224.04 1.01297 1.01297 91.10919 47.34 0.00 47.34 -0.20812 -0.88514 0.00000
2226.04 1.01382 1.01382 87.32686 52.27 0.00 52.27 -0.20812 -0.80549 0.00000
2229.85 0.57317 0.57317 -8.66815 50.75 0.00 50.75 0.10438 0.75376 0.00000
2231.04 0.57313 0.57313 -5.00286 43.97 0.00 43.97 0.10438 0.67736 0.00000
2234.04 0.57284 0.57284 -1.78106 38.40 0.00 38.40 0.10438 0.60995 0.00000
2236.05 0.57257 0.57257 1.06061 33.84 0.00 33.84 0.10438 0.55047 0.00000
2239.85 0.92397 0.92397 77.62368 34.49 0.00 34.49 -0.14562 -0.69319 0.00000
2241.04 0.92293 0.92293 74.48147 39.38 0.00 39.38 -0.14562 -0.62877 0.00000
2244.04 0.92237 0.92237 71.72632 43.35 0.00 43.35 -0.14562 -0.57193 0.00000
2246.06 0.92186 0.92186 69.29427 46.54 0.00 46.54 -0.14562 -0.52177 0.00000
2249.85 0.65836 0.65836 11.63997 45.83 0.00 45.83 0.04188 0.41586 0.00000
2251.05 0.65922 0.65922 13.79312 41.93 0.00 41.93 0.04188 0.37186 0.00000
2254.04 0.66048 0.66048 15.71731 38.73 0.00 38.73 0.04188 0.33304 0.00000
2256.04 0.66170 0.66170 17.42010 36.13 0.00 36.13 0.04188 0.29879 0.00000
2259.85 1.01456 1.01456 92.98428 38.37 0.00 38.37 -0.20812 -0.92262 0.00000
2261.05 1.01488 1.01488 88.96507 44.56 0.00 44.56 -0.20812 -0.83856 0.00000
2264.04 1.01488 1.01488 85.40482 49.57 0.00 49.57 -0.20812 -0.76439 0.00000
2266.05 1.01486 1.01486 82.26273 53.60 0.00 53.60 -0.20812 -0.69895 0.00000
2269.85 0.92692 0.92692 60.97588 55.72 0.00 55.72 -0.14562 -0.34341 0.00000
2271.04 0.92709 0.92709 59.86694 56.28 0.00 56.28 -0.14562 -0.32014 0.00000
2274.04 0.92717 0.92717 58.88538 56.64 0.00 56.64 -0.14562 -0.29961 0.00000
2276.05 0.92724 0.92724 58.01917 56.85 0.00 56.85 -0.14562 -0.28149 0.00000
2279.85 1.19268 1.19268 112.87532 60.22 0.00 60.22 -0.33312 -1.15889 0.00000
2281.05 1.19370 1.19370 108.26115 66.14 0.00 66.14 -0.33312 -1.06174 0.00000
2284.04 1.19331 1.19331 104.12775 70.85 0.00 70.85 -0.33312 -0.97602 0.00000
2286.04 1.19294 1.19294 100.47984 74.55 0.00 74.55 -0.33312 -0.90039 0.00000
2289.85 0.75110 0.75110 4.59746 71.96 0.00 71.96 -0.02062 0.65532 0.00000
2291.04 0.74989 0.74989 8.35659 64.26 0.00 64.26 -0.02062 0.57580 0.00000
2294.04 0.75070 0.75070 11.76318 57.88 0.00 57.88 -0.02062 0.50563 0.00000
2296.05 0.75148 0.75148 14.77243 52.63 0.00 52.63 -0.02062 0.44372 0.00000
2299.85 0.57497 0.57497 -19.66618 46.15 0.00 46.15 0.10438 0.98468 0.00000
2301.05 0.57471 0.57471 -14.70731 38.70 0.00 38.70 0.10438 0.88111 0.00000
2304.04 0.57452 0.57452 -10.33024 32.68 0.00 32.68 0.10438 0.78973 0.00000
2306.05 0.57432 0.57432 -6.46938 27.84 0.00 27.84 0.10438 0.70910 0.00000
2309.85 0.92787 0.92787 71.09244 28.37 0.00 28.37 -0.14562 -0.55322 0.00000
2311.04 0.92891 0.92891 68.84028 33.26 0.00 33.26 -0.14562 -0.50527 0.00000
2314.04 0.92856 0.92856 66.79292 37.33 0.00 37.33 -0.14562 -0.46296 0.00000
2316.05 0.92824 0.92824 64.98557 40.69 0.00 40.69 -0.14562 -0.42562 0.00000
2319.85 0.92823 0.92823 63.40362 43.45 0.00 43.45 -0.14562 -0.39268 0.00000
2321.04 0.92822 0.92822 62.00797 45.72 0.00 45.72 -0.14562 -0.36362 0.00000
2324.03 0.92689 0.92689 60.71334 47.56 0.00 47.56 -0.14562 -0.33797 0.00000
2326.04 0.92557 0.92557 59.56397 49.04 0.00 49.04 -0.14562 -0.31534 0.00000
2329.85 0.66107 0.66107 3.02704 46.95 0.00 46.95 0.04188 0.59801 0.00000
2331.04 0.66095 0.66095 6.16176 41.97 0.00 41.97 0.04188 0.53258 0.00000
2334.04 0.65956 0.65956 8.86610 37.91 0.00 37.91 0.04188 0.47485 0.00000
2336.05 0.65818 0.65818 11.24479 34.64 0.00 34.64 0.04188 0.42391 0.00000
2339.85 0.83546 0.83546 50.49984 34.19 0.00 34.19 -0.08312 -0.21662 0.00000
2341.04 0.83646 0.83646 49.79406 36.07 0.00 36.07 -0.08312 -0.20092 0.00000
2344.04 0.83489 0.83489 49.05334 37.64 0.00 37.64 -0.08312 -0.18706 0.00000
2346.04 0.83337 0.83337 48.39388 38.95 0.00 38.95 -0.08312 -0.17483 0.00000
2349.85 1.01065 1.01065 84.97350 42.21 0.00 42.21 -0.20812 -0.75963 0.00000
2351.04 1.01165 1.01165 81.90683 47.06 0.00 47.06 -0.20812 -0.69475 0.00000
2354.03 1.01114 1.01114 79.13469 51.00 0.00 51.00 -0.20812 -0.63750 0.00000
2356.05 1.01068 1.01068 76.68770 54.16 0.00 54.16 -0.20812 -0.58698 0.00000
2359.85 1.18627 1.18627 111.56516 58.86 0.00 58.86 -0.33312 -1.13800 0.00000
2361.05 1.18568 1.18568 106.99126 64.80 0.00 64.80 -0.33312 -1.04331 0.00000
2364.04 1.18672 1.18672 103.03098 69.53 0.00 69.53 -0.33312 -0.95976 0.00000
2366.05 1.18775 1.18775 99.54153 73.26 0.00 73.26 -0.33312 -0.88604 0.00000
2369.85 1.09946 1.09946 77.88712 75.08 0.00 75.08 -0.27062 -0.52319 0.00000
2371.05 1.09931 1.09931 76.45380 75.33 0.00 75.33 -0.27062 -0.49348 0.00000
2374.04 1.09793 1.09793 75.12903 75.38 0.00 75.38 -0.27062 -0.46726 0.00000
2376.05 1.09660 1.09660 73.95482 75.28 0.00 75.28 -0.27062 -0.44413 0.00000
2379.86 1.00894 1.00894 54.47338 73.98 0.00 73.98 -0.20812 -0.12592 0.00000
2381.04 1.00939 1.00939 54.95931 71.71 0.00 71.71 -0.20812 -0.13559 0.00000
2384.04 1.01046 1.01046 55.42010 69.77 0.00 69.77 -0.20812 -0.14413 0.00000
2386.05 1.01149 1.01149 55.83076 68.11 0.00 68.11 -0.20812 -0.15165 0.00000
2389.85 0.83336 0.83336 19.01122 64.50 0.00 64.50 -0.08312 0.43729 0.00000
2391.04 0.83150 0.83150 21.86079 59.31 0.00 59.31 -0.08312 0.37606 0.00000
2394.04 0.83017 0.83017 24.38998 55.06 0.00 55.06 -0.08312 0.32204 0.00000
2396.05 0.82885 0.82885 26.61497 51.58 0.00 51.58 -0.08312 0.27438 0.00000
2399.85 0.74115 0.74115 10.12985 47.67 0.00 47.67 -0.02062 0.53011 0.00000
2401.04 0.74154 0.74154 13.25845 43.44 0.00 43.44 -0.02062 0.46532 0.00000
2404.04 0.74031 0.74031 15.94352 40.05 0.00 40.05 -0.02062 0.40815 0.00000
2406.04 0.73909 0.73909 18.30661 37.35 0.00 37.35 -0.02062 0.35770 0.00000
2409.85 0.91639 0.91639 57.54171 37.42 0.00 37.42 -0.14562 -0.28239 0.00000
2411.04 0.91743 0.91743 56.81911 39.74 0.00 39.74 -0.14562 -0.26630 0.00000
2414.04 0.91760 0.91760 56.14576 41.71 0.00 41.71 -0.14562 -0.25210 0.00000
2416.08 0.91775 0.91775 55.55175 43.37 0.00 43.37 -0.14562 -0.23958 0.00000
2419.85 0.83104 0.83104 36.56503 43.69 0.00 43.69 -0.08312 0.06927 0.00000
2421.04 0.83241 0.83241 37.49146 42.91 0.00 42.91 -0.08312 0.05134 0.00000
2424.04 0.83329 0.83329 38.29302 42.32 0.00 42.32 -0.08312 0.03552 0.00000
2426.04 0.83415 0.83415 39.00417 41.89 0.00 41.89 -0.08312 0.02156 0.00000
2429.85 0.48255 0.48255 -34.45776 37.23 0.00 37.23 0.16688 1.20042 0.00000
2431.04 0.48345 0.48345 -28.57839 29.14 0.00 29.14 0.16688 1.07883 0.00000
2434.04 0.48214 0.48214 -23.49111 22.65 0.00 22.65 0.16688 0.97154 0.00000
2436.04 0.48088 0.48088 -19.00772 17.48 0.00 17.48 0.16688 0.87687 0.00000
2439.85 0.56852 0.56852 3.50277 14.51 0.00 14.51 0.10438 0.49555 0.00000
2441.04 0.56807 0.56807 5.68993 13.35 0.00 13.35 0.10438 0.44953 0.00000
2444.04 0.56793 0.56793 7.63238 12.56 0.00 12.56 0.10438 0.40892 0.00000
2446.04 0.56779 0.56779 9.34558 12.08 0.00 12.08 0.10438 0.37309 0.00000
2449.85 0.38985 0.38985 -26.26658 9.66 0.00 9.66 0.22938 0.93707 0.00000
2451.04 0.38819 0.38819 -22.34974 5.67 0.00 5.67 0.22938 0.85381 0.00000
2454.04 0.38885 0.38885 -18.79193 2.58 0.00 2.58 0.22938 0.78035 0.00000
2456.05 0.38948 0.38948 -15.65031 0.25 0.00 0.25 0.22938 0.71553 0.00000
2459.85 0.74262 0.74262 61.22242 2.90 0.00 2.90 -0.02062 -0.53284 0.00000
2461.04 0.74323 0.74323 58.35894 9.60 0.00 9.60 -0.02062 -0.47258 0.00000
2464.03 0.74430 0.74430 55.85799 15.18 0.00 15.18 -0.02062 -0.41941 0.00000
2466.04 0.74533 0.74533 53.65584 19.84 0.00 19.84 -0.02062 -0.37250 0.00000
2469.86 0.48166 0.48166 -3.86982 20.43 0.00 20.43 0.16688 0.56228 0.00000
2471.04 0.48232 0.48232 -1.60512 17.71 0.00 17.71 0.16688 0.51576 0.00000
2474.04 0.48304 0.48304 0.39928 15.55 0.00 15.55 0.16688 0.47472 0.00000
2476.04 0.48372 0.48372 2.17060 13.88 0.00 13.88 0.16688 0.43850 0.00000
2479.85 0.66083 0.66083 40.79372 14.77 0.00 14.77 0.04188 -0.18904 0.00000
2481.04 0.66166 0.66166 39.52984 17.76 0.00 17.76 0.04188 -0.16188 0.00000
2484.04 0.66232 0.66232 38.41099 20.25 0.00 20.25 0.04188 -0.13791 0.00000
2486.05 0.66294 0.66294 37.42554 22.33 0.00 22.33 0.04188 -0.11675 0.00000
2489.85 0.75139 0.75139 55.06944 25.15 0.00 25.15 -0.02062 -0.39589 0.00000
2491.04 0.75169 0.75169 52.96461 28.54 0.00 28.54 -0.02062 -0.35174 0.00000
2494.04 0.75234 0.75234 51.12601 31.31 0.00 31.31 -0.02062 -0.31278 0.00000
2496.04 0.75297 0.75297 49.50614 33.54 0.00 33.54 -0.02062 -0.27841 0.00000
2499.85 0.48751 0.48751 -7.57368 32.06 0.00 32.06 0.16688 0.64530 0.00000
2501.04 0.48644 0.48644 -4.92339 27.56 0.00 27.56 0.16688 0.58901 0.00000
2504.04 0.48461 0.48461 -2.62745 23.87 0.00 23.87 0.16688 0.53935 0.00000
2506.05 0.48280 0.48280 -0.61089 20.87 0.00 20.87 0.16688 0.49553 0.00000
2509.85 0.39418 0.39418 -17.30310 17.36 0.00 17.36 0.22938 0.75466 0.00000
2511.04 0.39370 0.39370 -14.35959 13.46 0.00 13.46 0.22938 0.69286 0.00000
2514.04 0.39486 0.39486 -11.68687 10.34 0.00 10.34 0.22938 0.63833 0.00000
2516.05 0.39599 0.39599 -9.32321 7.89 0.00 7.89 0.22938 0.59022 0.00000
2519.85 0.39682 0.39682 -7.24524 5.99 0.00 5.99 0.22938 0.54777 0.00000
2521.04 0.39762 0.39762 -5.40907 4.54 0.00 4.54 0.22938 0.51031 0.00000
2524.04 0.39862 0.39862 -3.77437 3.46 0.00 3.46 0.22938 0.47726 0.00000
2526.04 0.39959 0.39959 -2.32818 2.70 0.00 2.70 0.22938 0.44809 0.00000
2529.85 0.48647 0.48647 17.37129 3.26 0.00 3.26 0.16688 0.12457 0.00000
2531.05 0.48523 0.48523 17.07262 4.91 0.00 4.91 0.16688 0.12955 0.00000
2534.04 0.48404 0.48404 16.80475 6.32 0.00 6.32 0.16688 0.13394 0.00000
2536.04 0.48285 0.48285 16.56196 7.54 0.00 7.54 0.16688 0.13781 0.00000
2539.85 0.65736 0.65736 53.36243 10.77 0.00 10.77 0.04188 -0.45436 0.00000
2541.05 0.65568 0.65568 50.47933 15.61 0.00 15.61 0.04188 -0.39598 0.00000
2544.04 0.65458 0.65458 47.95401 19.56 0.00 19.56 0.04188 -0.34446 0.00000
2546.04 0.65348 0.65348 45.71960 22.77 0.00 22.77 0.04188 -0.29901 0.00000
2549.86 0.91670 0.91670 99.31153 28.62 0.00 28.62 -0.14562 -1.15229 0.00000
2551.05 0.91555 0.91555 93.57152 36.60 0.00 36.60 -0.14562 -1.03386 0.00000
2554.04 0.91542 0.91542 88.54951 43.01 0.00 43.01 -0.14562 -0.92936 0.00000
2556.05 0.91530 0.91530 84.11784 48.11 0.00 48.11 -0.14562 -0.83716 0.00000
2559.86 1.00242 1.00242 98.68847 53.20 0.00 53.20 -0.20812 -1.05359 0.00000
2561.05 1.00144 1.00144 93.86705 58.27 0.00 58.27 -0.20812 -0.95413 0.00000
2564.04 1.00280 1.00280 89.71973 62.21 0.00 62.21 -0.20812 -0.86636 0.00000
2566.04 1.00415 1.00415 86.06731 65.23 0.00 65.23 -0.20812 -0.78892 0.00000
2569.86 0.65271 0.65271 8.74210 63.14 0.00 63.14 0.04188 0.47058 0.00000
2571.04 0.65376 0.65376 11.21354 56.88 0.00 56.88 0.04188 0.42015 0.00000
2574.04 0.65317 0.65317 13.32113 51.63 0.00 51.63 0.04188 0.37564 0.00000
2576.04 0.65257 0.65257 15.17729 47.24 0.00 47.24 0.04188 0.33638 0.00000
2579.85 0.65195 0.65195 16.81076 43.56 0.00 43.56 0.04188 0.30173 0.00000
2581.04 0.65137 0.65137 18.25030 40.50 0.00 40.50 0.04188 0.27116 0.00000
2584.03 0.65244 0.65244 19.59624 37.96 0.00 37.96 0.04188 0.24418 0.00000
2586.05 0.65349 0.65349 20.78913 35.87 0.00 35.87 0.04188 0.22038 0.00000
2589.85 1.00628 1.00628 95.90739 38.51 0.00 38.51 -0.20812 -0.99179 0.00000
2591.05 1.00654 1.00654 91.49452 45.01 0.00 45.01 -0.20812 -0.89960 0.00000
2594.04 1.00566 1.00566 87.54742 50.24 0.00 50.24 -0.20812 -0.81825 0.00000
2596.05 1.00481 1.00481 84.06148 54.43 0.00 54.43 -0.20812 -0.74647 0.00000
2599.85 1.00407 1.00407 80.98566 57.73 0.00 57.73 -0.20812 -0.68313 0.00000
2601.04 1.00336 1.00336 78.26910 60.31 0.00 60.31 -0.20812 -0.62725 0.00000
2604.04 1.00443 1.00443 75.95381 62.29 0.00 62.29 -0.20812 -0.57794 0.00000
2606.04 1.00547 1.00547 73.91553 63.77 0.00 63.77 -0.20812 -0.53443 0.00000
2609.85 1.18156 1.18156 109.11344 67.04 0.00 67.04 -0.33312 -1.09163 0.00000
2611.04 1.18140 1.18140 104.82225 71.73 0.00 71.73 -0.33312 -1.00240 0.00000
2614.04 1.18247 1.18247 101.09420 75.41 0.00 75.41 -0.33312 -0.92366 0.00000
2616.05 1.18353 1.18353 97.81020 78.24 0.00 78.24 -0.33312 -0.85418 0.00000
2619.85 0.74384 0.74384 2.29190 74.92 0.00 74.92 -0.02062 0.69609 0.00000
2621.04 0.74474 0.74474 6.38273 66.62 0.00 66.62 -0.02062 0.61177 0.00000
2624.04 0.74374 0.74374 9.90576 59.74 0.00 59.74 -0.02062 0.53737 0.00000
2626.05 0.74277 0.74277 13.01015 54.06 0.00 54.06 -0.02062 0.47172 0.00000
2629.85 0.83149 0.83149 34.34321 50.48 0.00 50.48 -0.08312 0.11601 0.00000
2631.04 0.83205 0.83205 35.49464 48.65 0.00 48.65 -0.08312 0.09258 0.00000
2634.04 0.83096 0.83096 36.43444 47.16 0.00 47.16 -0.08312 0.07191 0.00000
2636.04 0.82993 0.82993 37.26073 45.95 0.00 45.95 -0.08312 0.05367 0.00000
2639.86 0.65236 0.65236 0.92147 42.79 0.00 42.79 0.04188 0.63316 0.00000
2641.04 0.65104 0.65104 4.19699 38.05 0.00 38.05 0.04188 0.56360 0.00000
2644.04 0.65120 0.65120 7.15085 34.24 0.00 34.24 0.04188 0.50222 0.00000
2646.08 0.65133 0.65133 9.75703 31.21 0.00 31.21 0.04188 0.44806 0.00000
2649.86 0.29777 0.29777 -62.09695 24.46 0.00 24.46 0.29188 1.59145 0.00000
2651.04 0.29677 0.29677 -54.80588 14.71 0.00 14.71 0.29188 1.43856 0.00000
2654.04 0.29767 0.29767 -48.28735 6.91 0.00 6.91 0.29188 1.30366 0.00000
2656.05 0.29852 0.29852 -42.53288 0.76 0.00 0.76 0.29188 1.18462 0.00000
2659.85 0.29748 0.29748 -37.54135 -4.04 0.00 -4.04 0.29188 1.07959 0.00000
2661.05 0.29650 0.29650 -33.14008 -7.73 0.00 -7.73 0.29188 0.98692 0.00000
2664.04 0.29714 0.29714 -29.18470 -10.48 0.00 -10.48 0.29188 0.90515 0.00000
2666.05 0.29773 0.29773 -25.69309 -12.48 0.00 -12.48 0.29188 0.83300 0.00000
2669.85 0.82514 0.82514 88.44331 -7.32 0.00 -7.32 -0.08312 -1.01743 0.00000
2671.04 0.82385 0.82385 83.10519 3.63 0.00 3.63 -0.08312 -0.90751 0.00000
2674.04 0.82360 0.82360 78.43790 12.71 0.00 12.71 -0.08312 -0.81052 0.00000
2676.05 0.82337 0.82337 74.31938 20.20 0.00 20.20 -0.08312 -0.72495 0.00000
2679.85 0.91252 0.91252 89.26805 27.45 0.00 27.45 -0.14562 -0.94723 0.00000
2681.04 0.91349 0.91349 84.78798 34.46 0.00 34.46 -0.14562 -0.85293 0.00000
2684.04 0.91434 0.91434 80.83453 40.14 0.00 40.14 -0.14562 -0.76971 0.00000
2686.05 0.91516 0.91516 77.34975 44.73 0.00 44.73 -0.14562 -0.69629 0.00000
2689.85 0.91614 0.91614 74.28728 48.38 0.00 48.38 -0.14562 -0.63151 0.00000
2691.04 0.91710 0.91710 71.58946 51.27 0.00 51.27 -0.14562 -0.57434 0.00000
2694.04 0.91628 0.91628 69.12897 53.52 0.00 53.52 -0.14562 -0.52391 0.00000
2696.04 0.91546 0.91546 66.95332 55.23 0.00 55.23 -0.14562 -0.47940 0.00000
2699.85 0.82780 0.82780 46.56694 55.41 0.00 55.41 -0.08312 -0.14234 0.00000
2701.04 0.82824 0.82824 46.25330 54.35 0.00 54.35 -0.08312 -0.13537 0.00000
2704.04 0.82705 0.82705 45.90136 53.38 0.00 53.38 -0.08312 -0.12923 0.00000
2706.04 0.82588 0.82588 45.58479 52.48 0.00 52.48 -0.08312 -0.12380 0.00000
2709.59 0.82570 0.82570 45.34658 51.65 0.00 51.65 -0.08312 -0.11902 0.00000
2711.41 0.20858 0.20858 -84.53676 43.27 0.00 43.27 0.35438 1.96976 0.00000
2714.06 0.20921 0.20921 -75.38428 28.77 0.00 28.77 0.35438 1.77972 0.00000
2716.07 0.20982 0.20982 -67.30586 16.99 0.00 16.99 0.35438 1.61203 0.00000
2719.48 0.20883 0.20883 -60.25175 7.49 0.00 7.49 0.35438 1.46407 0.00000
2721.41 0.64855 0.64855 38.59192 5.34 0.00 5.34 0.04188 -0.15545 0.00000
2724.06 0.64944 0.64944 37.52039 9.19 0.00 9.19 0.04188 -0.13224 0.00000
2726.04 0.65030 0.65030 36.57845 12.46 0.00 12.46 0.04188 -0.11175 0.00000
2729.48 0.64942 0.64942 35.66900 15.25 0.00 15.25 0.04188 -0.09368 0.00000
2731.42 0.64862 0.64862 34.86481 17.60 0.00 17.60 0.04188 -0.07773 0.00000
2734.03 0.64992 0.64992 34.25193 19.60 0.00 19.60 0.04188 -0.06366 0.00000
2736.05 0.65121 0.65121 33.71794 21.29 0.00 21.29 0.04188 -0.05124 0.00000
2739.48 0.65018 0.65018 33.14240 22.72 0.00 22.72 0.04188 -0.04029 0.00000
2741.42 0.82543 0.82543 69.67860 26.09 0.00 26.09 -0.08312 -0.62621 0.00000
2744.04 0.82517 0.82517 66.59948 31.04 0.00 31.04 -0.08312 -0.56232 0.00000
2746.05 0.82495 0.82495 63.88279 35.06 0.00 35.06 -0.08312 -0.50594 0.00000
2749.48 0.82605 0.82605 61.54787 38.32 0.00 38.32 -0.08312 -0.45620 0.00000
2751.41 0.56271 0.56271 3.91844 37.66 0.00 37.66 0.10438 0.48107 0.00000
2754.04 0.56217 0.56217 6.02002 33.81 0.00 33.81 0.10438 0.43676 0.00000
2756.05 0.56168 0.56168 7.87342 30.65 0.00 30.65 0.10438 0.39765 0.00000
2759.48 0.56169 0.56169 9.53003 28.07 0.00 28.07 0.10438 0.36315 0.00000
2761.42 0.47357 0.47357 -7.53243 24.89 0.00 24.89 0.16688 0.63050 0.00000
2764.08 0.47436 0.47436 -4.87643 21.23 0.00 21.23 0.16688 0.57596 0.00000
2766.04 0.47513 0.47513 -2.52953 18.30 0.00 18.30 0.16688 0.52783 0.00000
2769.48 0.47610 0.47610 -0.44466 15.97 0.00 15.97 0.16688 0.48536 0.00000
2771.42 0.82960 0.82960 75.49821 18.50 0.00 18.50 -0.08312 -0.74328 0.00000
2774.04 0.83058 0.83058 71.81750 24.99 0.00 24.99 -0.08312 -0.66562 0.00000
2776.04 0.83155 0.83155 68.57473 30.31 0.00 30.31 -0.08312 -0.59709 0.00000
2779.48 0.83121 0.83121 65.65601 34.64 0.00 34.64 -0.08312 -0.53662 0.00000
2781.41 0.39021 0.39021 -29.54342 32.69 0.00 32.69 0.22938 1.00570 0.00000
2784.05 0.38881 0.38881 -25.22698 25.62 0.00 25.62 0.22938 0.91437 0.00000
2786.05 0.38742 0.38742 -21.42522 19.86 0.00 19.86 0.22938 0.83378 0.00000
2789.48 0.38662 0.38662 -18.05077 15.20 0.00 15.20 0.22938 0.76267 0.00000
2791.41 0.65024 0.65024 40.49701 14.74 0.00 14.74 0.04188 -0.19345 0.00000
2794.04 0.65050 0.65050 39.18044 17.69 0.00 17.69 0.04188 -0.16576 0.00000
2796.04 0.65073 0.65073 38.01903 20.15 0.00 20.15 0.04188 -0.14134 0.00000
2799.48 0.64992 0.64992 36.94582 22.19 0.00 22.19 0.04188 -0.11978 0.00000
2801.41 1.00173 1.00173 110.09617 28.23 0.00 28.23 -0.20812 -1.29194 0.00000
2804.03 1.00177 1.00177 103.97756 37.50 0.00 37.50 -0.20812 -1.16443 0.00000
2806.04 1.00181 1.00181 98.57934 45.00 0.00 45.00 -0.20812 -1.05193 0.00000
2809.48 1.00230 1.00230 93.83795 51.03 0.00 51.03 -0.20812 -0.95265 0.00000
2811.41 0.73836 0.73836 34.08170 52.55 0.00 52.55 -0.02062 0.02832 0.00000
2814.05 0.73847 0.73847 34.36346 50.39 0.00 50.39 -0.02062 0.02256 0.00000
2816.04 0.73856 0.73856 34.61187 48.52 0.00 48.52 -0.02062 0.01748 0.00000
2819.49 0.73971 0.73971 34.88236 46.90 0.00 46.90 -0.02062 0.01300 0.00000
2821.41 0.82898 0.82898 53.65121 46.59 0.00 46.59 -0.08312 -0.28875 0.00000
2824.04 0.83002 0.83002 52.54008 47.36 0.00 47.36 -0.08312 -0.26456 0.00000
2826.04 0.83102 0.83102 51.56325 47.91 0.00 47.91 -0.08312 -0.24322 0.00000
2829.48 0.82975 0.82975 50.59814 48.28 0.00 48.28 -0.08312 -0.22438 0.00000
2831.42 0.65223 0.65223 12.69135 46.32 0.00 46.32 0.04188 0.38783 0.00000
2834.03 0.65312 0.65312 14.68788 42.49 0.00 42.49 0.04188 0.34713 0.00000
2836.05 0.65398 0.65398 16.45256 39.32 0.00 39.32 0.04188 0.31121 0.00000
2839.48 0.65320 0.65320 17.93655 36.72 0.00 36.72 0.04188 0.27953 0.00000
2841.41 0.65246 0.65246 19.24300 34.58 0.00 34.58 0.04188 0.25157 0.00000
2844.03 0.65395 0.65395 20.49872 32.85 0.00 32.85 0.04188 0.22690 0.00000
2846.05 0.65542 0.65542 21.61401 31.46 0.00 31.46 0.04188 0.20513 0.00000
2849.48 0.65430 0.65430 22.48186 30.36 0.00 30.36 0.04188 0.18592 0.00000
2851.41 0.56508 0.56508 4.71883 28.39 0.00 28.39 0.10438 0.46677 0.00000
2854.04 0.56391 0.56391 6.70934 25.72 0.00 25.72 0.10438 0.42414 0.00000
2856.05 0.56276 0.56276 8.45943 23.58 0.00 23.58 0.10438 0.38652 0.00000
2859.48 0.56301 0.56301 10.06513 21.90 0.00 21.90 0.10438 0.35332 0.00000
2861.42 0.82766 0.82766 67.05652 23.86 0.00 23.86 -0.08312 -0.56935 0.00000
2864.06 0.82869 0.82869 64.36024 28.78 0.00 28.78 -0.08312 -0.51214 0.00000
2866.05 0.82970 0.82970 61.98597 32.83 0.00 32.83 -0.08312 -0.46167 0.00000
2869.48 0.82983 0.82983 59.85433 36.13 0.00 36.13 -0.08312 -0.41714 0.00000
2871.41 0.74180 0.74180 39.44872 37.72 0.00 37.72 -0.02062 -0.08005 0.00000
2874.04 0.74166 0.74166 39.10633 37.91 0.00 37.91 -0.02062 -0.07306 0.00000
2876.04 0.74154 0.74154 38.80455 38.03 0.00 38.03 -0.02062 -0.06689 0.00000
2879.48 0.74043 0.74043 38.49001 38.10 0.00 38.10 -0.02062 -0.06144 0.00000
2881.41 0.73936 0.73936 38.20795 38.13 0.00 38.13 -0.02062 -0.05664 0.00000
2884.04 0.74020 0.74020 38.04495 38.13 0.00 38.13 -0.02062 -0.05241 0.00000
2886.04 0.74102 0.74102 37.90492 38.11 0.00 38.11 -0.02062 -0.04867 0.00000
2889.48 0.74181 0.74181 37.78458 38.08 0.00 38.08 -0.02062 -0.04537 0.00000
2891.41 0.65445 0.65445 19.15735 36.95 0.00 36.95 0.04188 0.25534 0.00000
2894.03 0.65331 0.65331 20.30809 34.93 0.00 34.93 0.04188 0.23022 0.00000
2896.04 0.65217 0.65217 21.31706 33.26 0.00 33.26 0.04188 0.20807 0.00000
2899.49 0.65279 0.65279 22.28534 31.92 0.00 31.92 0.04188 0.18851 0.00000
2901.42 0.74153 0.74153 41.66710 31.92 0.00 31.92 -0.02062 -0.12653 0.00000
2904.04 0.74268 0.74268 41.12415 33.04 0.00 33.04 -0.02062 -0.11407 0.00000
2906.04 0.74382 0.74382 40.65103 33.96 0.00 33.96 -0.02062 -0.10308 0.00000
2909.48 0.74272 0.74272 40.13280 34.72 0.00 34.72 -0.02062 -0.09338 0.00000
2911.42 0.47727 0.47727 -15.90192 32.06 0.00 32.06 0.16688 0.80856 0.00000
2914.06 0.47851 0.47851 -12.21908 26.63 0.00 26.63 0.16688 0.73307 0.00000
2916.05 0.47973 0.47973 -8.96307 22.25 0.00 22.25 0.16688 0.66646 0.00000
2919.49 0.47926 0.47926 -6.16419 18.75 0.00 18.75 0.16688 0.60768 0.00000
2921.41 0.74325 0.74325 51.87870 19.23 0.00 19.23 -0.02062 -0.33756 0.00000
2924.04 0.74199 0.74199 50.02843 22.96 0.00 22.96 -0.02062 -0.30027 0.00000
2926.04 0.74073 0.74073 48.38886 26.05 0.00 26.05 -0.02062 -0.26737 0.00000
2929.48 0.74167 0.74167 47.04065 28.60 0.00 28.60 -0.02062 -0.23834 0.00000
2931.41 1.00701 1.00701 101.42978 33.97 0.00 33.97 -0.20812 -1.10611 0.00000
2934.06 1.00760 1.00760 96.38715 41.61 0.00 41.61 -0.20812 -1.00047 0.00000
2936.05 1.00817 1.00817 91.94007 47.79 0.00 47.79 -0.20812 -0.90725 0.00000
2939.48 1.00820 1.00820 87.99370 52.75 0.00 52.75 -0.20812 -0.82500 0.00000
2941.41 0.65567 0.65567 10.41211 52.33 0.00 52.33 0.04188 0.43875 0.00000
2944.04 0.65672 0.65672 12.70393 47.54 0.00 47.54 0.04188 0.39206 0.00000
2946.04 0.65774 0.65774 14.73035 43.56 0.00 43.56 0.04188 0.35086 0.00000
2949.48 0.65884 0.65884 16.52798 40.27 0.00 40.27 0.04188 0.31451 0.00000
2951.41 0.65993 0.65993 18.11990 37.57 0.00 37.57 0.04188 0.28244 0.00000
2954.04 0.65884 0.65884 19.42574 35.36 0.00 35.36 0.04188 0.25413 0.00000
2956.05 0.65774 0.65774 20.57188 33.55 0.00 33.55 0.04188 0.22916 0.00000
2959.48 0.65673 0.65673 21.58090 32.09 0.00 32.09 0.04188 0.20713 0.00000
2961.41 0.83201 0.83201 59.51570 33.08 0.00 33.08 -0.08312 -0.40790 0.00000
2964.04 0.83138 0.83138 57.65131 36.08 0.00 36.08 -0.08312 -0.36969 0.00000
2966.04 0.83076 0.83076 56.00344 38.52 0.00 38.52 -0.08312 -0.33598 0.00000
2969.48 0.83098 0.83098 54.58613 40.50 0.00 40.50 -0.08312 -0.30623 0.00000
2971.42 0.74304 0.74304 34.81099 40.99 0.00 40.99 -0.02062 0.01781 0.00000
2974.04 0.74176 0.74176 34.96659 40.27 0.00 40.27 -0.02062 0.01329 0.00000
2976.04 0.74049 0.74049 35.09703 39.66 0.00 39.66 -0.02062 0.00930 0.00000
2979.48 0.73881 0.73881 35.18568 39.12 0.00 39.12 -0.02062 0.00578 0.00000
2981.41 0.82532 0.82532 53.78097 39.76 0.00 39.76 -0.08312 -0.29512 0.00000
2984.04 0.82422 0.82422 52.53102 41.33 0.00 41.33 -0.08312 -0.27018 0.00000
2986.05 0.82313 0.82313 51.42274 42.58 0.00 42.58 -0.08312 -0.24817 0.00000
2989.48 0.82386 0.82386 50.52560 43.57 0.00 43.57 -0.08312 -0.22876 0.00000
2991.41 0.73641 0.73641 31.21155 43.25 0.00 43.25 -0.02062 0.08617 0.00000
2994.04 0.73740 0.73740 31.86208 41.87 0.00 41.87 -0.02062 0.07361 0.00000
2996.04 0.73835 0.73835 32.44002 40.73 0.00 40.73 -0.02062 0.06252 0.00000
2999.48 0.73935 0.73935 32.95758 39.79 0.00 39.79 -0.02062 0.05274 0.00000
3001.41 0.82846 0.82846 51.94288 40.10 0.00 40.10 -0.08312 -0.25369 0.00000
3004.06 0.82890 0.82890 51.00114 41.44 0.00 41.44 -0.08312 -0.23362 0.00000
3006.04 0.82932 0.82932 50.17114 42.51 0.00 42.51 -0.08312 -0.21591 0.00000
3009.48 0.83055 0.83055 49.48035 43.37 0.00 43.37 -0.08312 -0.20029 0.00000
3011.41 0.83175 0.83175 48.87649 44.06 0.00 44.06 -0.08312 -0.18651 0.00000
3014.04 0.83229 0.83229 48.31831 44.59 0.00 44.59 -0.08312 -0.17435 0.00000
3016.05 0.83279 0.83279 47.82719 45.00 0.00 45.00 -0.08312 -0.16361 0.00000
3019.48 0.83404 0.83404 47.43300 45.31 0.00 45.31 -0.08312 -0.15414 0.00000
3021.42 0.21830 0.21830 -82.58231 37.91 0.00 37.91 0.35438 1.93877 0.00000
3024.05 0.21687 0.21687 -73.70395 24.26 0.00 24.26 0.35438 1.75237 0.00000
3026.05 0.21548 0.21548 -65.87616 13.19 0.00 13.19 0.35438 1.58790 0.00000
3029.48 0.21438 0.21438 -58.96294 4.30 0.00 4.30 0.35438 1.44278 0.00000
3031.41 0.47772 0.47772 2.70588 0.48 0.00 0.48 0.16688 0.42135 0.00000
3034.04 0.47867 0.47867 4.18844 0.83 0.00 0.83 0.16688 0.39141 0.00000
3036.05 0.47956 0.47956 5.49920 1.30 0.00 1.30 0.16688 0.36499 0.00000
3039.48 0.47951 0.47951 6.61575 1.86 0.00 1.86 0.16688 0.34169 0.00000
3041.41 0.65574 0.65574 44.65015 4.66 0.00 4.66 0.04188 -0.27447 0.00000
3044.04 0.65555 0.65555 42.85466 9.26 0.00 9.26 0.04188 -0.23725 0.00000
3046.05 0.65539 0.65539 41.27061 13.12 0.00 13.12 0.04188 -0.20441 0.00000
3049.48 0.65417 0.65417 39.82133 16.34 0.00 16.34 0.04188 -0.17544 0.00000
3051.41 0.56484 0.56484 20.01224 17.94 0.00 17.94 0.10438 0.14792 0.00000
3054.04 0.56503 0.56503 20.26722 18.20 0.00 18.20 0.10438 0.14280 0.00000
3056.05 0.56520 0.56520 20.49215 18.46 0.00 18.46 0.10438 0.13828 0.00000
3059.48 0.56534 0.56534 20.69047 18.71 0.00 18.71 0.10438 0.13429 0.00000
3061.41 0.47733 0.47733 2.34060 17.86 0.00 17.86 0.16688 0.42856 0.00000
3064.04 0.47653 0.47653 3.78003 16.12 0.00 16.12 0.16688 0.39778 0.00000
3066.05 0.47576 0.47576 5.04715 14.74 0.00 14.74 0.16688 0.37061 0.00000
3069.48 0.47482 0.47482 6.15254 13.67 0.00 13.67 0.16688 0.34664 0.00000
3071.41 0.65016 0.65016 44.17203 15.02 0.00 15.02 0.04188 -0.27009 0.00000
3074.04 0.64970 0.64970 42.38842 18.34 0.00 18.34 0.04188 -0.23339 0.00000
3076.07 0.64928 0.64928 40.81385 21.08 0.00 21.08 0.04188 -0.20101 0.00000
3079.48 0.64966 0.64966 39.46046 23.32 0.00 23.32 0.04188 -0.17243 0.00000
3081.42 0.47373 0.47373 1.21755 22.97 0.00 22.97 0.16688 0.44837 0.00000
3084.03 0.47422 0.47422 2.83042 20.51 0.00 20.51 0.16688 0.41525 0.00000
3086.05 0.47467 0.47467 4.25474 18.51 0.00 18.51 0.16688 0.38603 0.00000
3089.48 0.47545 0.47545 5.52974 16.91 0.00 16.91 0.16688 0.36025 0.00000
3091.15 0.47620 0.47620 6.65772 15.64 0.00 15.64 0.16688 0.33750 0.00000
3094.42 0.47486 0.47486 7.55691 14.63 0.00 14.63 0.16688 0.31742 0.00000
3096.05 0.47352 0.47352 8.34269 13.85 0.00 13.85 0.16688 0.29971 0.00000
3099.48 0.47288 0.47288 9.06197 13.24 0.00 13.24 0.16688 0.28408 0.00000
3101.04 0.47227 0.47227 9.69465 12.79 0.00 12.79 0.16688 0.27029 0.00000
3104.41 0.64869 0.64869 47.33502 14.64 0.00 14.64 0.04188 -0.33746 0.00000
3106.04 0.64883 0.64883 45.19999 18.36 0.00 18.36 0.04188 -0.29283 0.00000
3109.48 0.64805 0.64805 43.27217 21.40 0.00 21.40 0.04188 -0.25346 0.00000
3111.04 0.64733 0.64733 41.56977 23.88 0.00 23.88 0.04188 -0.21871 0.00000
3114.41 0.47127 0.47127 3.05909 23.69 0.00 23.69 0.16688 0.40753 0.00000
3116.04 0.47143 0.47143 4.42615 21.35 0.00 21.35 0.16688 0.37922 0.00000
3119.48 0.47191 0.47191 5.64809 19.43 0.00 19.43 0.16688 0.35424 0.00000
3121.04 0.47237 0.47237 6.72820 17.87 0.00 17.87 0.16688 0.33220 0.00000
3124.40 0.73685 0.73685 63.23929 19.88 0.00 19.88 -0.02062 -0.58064 0.00000
3126.04 0.73697 0.73697 60.08282 24.80 0.00 24.80 -0.02062 -0.51475 0.00000
3129.48 0.73547 0.73547 57.22040 28.78 0.00 28.78 -0.02062 -0.45662 0.00000
3131.04 0.73399 0.73399 54.68707 31.98 0.00 31.98 -0.02062 -0.40533 0.00000
3134.40 0.73443 0.73443 52.53583 34.52 0.00 34.52 -0.02062 -0.36007 0.00000
3136.04 0.73485 0.73485 50.63917 36.53 0.00 36.53 -0.02062 -0.32013 0.00000
3139.48 0.73605 0.73605 49.00550 38.09 0.00 38.09 -0.02062 -0.28490 0.00000
3141.05 0.73722 0.73722 47.56910 39.29 0.00 39.29 -0.02062 -0.25381 0.00000
3144.40 0.64990 0.64990 27.76700 39.10 0.00 39.10 0.04188 0.07142 0.00000
3146.04 0.65069 0.65069 27.97161 37.78 0.00 37.78 0.04188 0.06795 0.00000
3149.48 0.65173 0.65173 28.16882 36.64 0.00 36.64 0.04188 0.06488 0.00000
3151.05 0.65275 0.65275 28.34775 35.65 0.00 35.65 0.04188 0.06217 0.00000
3154.40 0.74134 0.74134 47.00884 35.89 0.00 35.89 -0.02062 -0.23801 0.00000
3156.04 0.74177 0.74177 45.80173 37.13 0.00 37.13 -0.02062 -0.21244 0.00000
3159.48 0.74264 0.74264 44.76067 38.09 0.00 38.09 -0.02062 -0.18987 0.00000
3161.05 0.74351 0.74351 43.84649 38.82 0.00 38.82 -0.02062 -0.16996 0.00000
3164.40 0.74250 0.74250 42.95490 39.36 0.00 39.36 -0.02062 -0.15239 0.00000
3166.04 0.74156 0.74156 42.16531 39.73 0.00 39.73 -0.02062 -0.13689 0.00000
3169.48 0.74229 0.74229 41.54387 39.98 0.00 39.98 -0.02062 -0.12321 0.00000
3171.04 0.74300 0.74300 40.99858 40.14 0.00 40.14 -0.02062 -0.11114 0.00000
3174.41 1.00634 1.00634 96.01009 43.47 0.00 43.47 -0.20812 -0.99387 0.00000
3176.04 1.00530 1.00530 91.52313 49.39 0.00 49.39 -0.20812 -0.90143 0.00000
3179.48 1.00554 1.00554 87.61940 54.12 0.00 54.12 -0.20812 -0.81987 0.00000
3181.05 1.00575 1.00575 84.17514 57.86 0.00 57.86 -0.20812 -0.74790 0.00000
3184.40 0.91630 0.91630 62.53903 59.68 0.00 59.68 -0.14562 -0.38660 0.00000
3186.04 0.91502 0.91502 61.11677 59.93 0.00 59.93 -0.14562 -0.35825 0.00000
3189.47 0.91587 0.91587 59.95687 60.00 0.00 60.00 -0.14562 -0.33324 0.00000
3191.04 0.91670 0.91670 58.93767 59.94 0.00 59.94 -0.14562 -0.31116 0.00000
3194.40 1.18042 1.18042 113.54368 63.03 0.00 63.03 -0.33312 -1.18507 0.00000
3196.04 1.17980 1.17980 108.70262 68.69 0.00 68.69 -0.33312 -1.08484 0.00000
3199.49 1.18027 1.18027 104.48016 73.15 0.00 73.15 -0.33312 -0.99640 0.00000
3201.04 1.18070 1.18070 100.75564 76.62 0.00 76.62 -0.33312 -0.91837 0.00000
3204.40 0.74067 0.74067 4.85865 73.81 0.00 73.81 -0.02062 0.63945 0.00000
3206.05 0.74123 0.74123 8.61285 65.92 0.00 65.92 -0.02062 0.56180 0.00000
3209.48 0.74225 0.74225 11.95073 59.38 0.00 59.38 -0.02062 0.49328 0.00000
3211.04 0.74324 0.74324 14.90025 53.97 0.00 53.97 -0.02062 0.43282 0.00000
3214.40 0.74224 0.74224 17.41285 49.52 0.00 49.52 -0.02062 0.37947 0.00000
3216.04 0.74130 0.74130 19.62731 45.87 0.00 45.87 -0.02062 0.33240 0.00000
3219.48 0.74074 0.74074 21.59393 42.90 0.00 42.90 -0.02062 0.29087 0.00000
3221.05 0.74019 0.74019 23.32654 40.50 0.00 40.50 -0.02062 0.25422 0.00000
3224.40 0.56433 0.56433 -12.15073 36.39 0.00 36.39 0.10438 0.81748 0.00000
3226.04 0.56470 0.56470 -8.10636 30.92 0.00 30.92 0.10438 0.73358 0.00000
3229.48 0.56497 0.56497 -4.54002 26.54 0.00 26.54 0.10438 0.65956 0.00000
3231.05 0.56522 0.56522 -1.39293 23.07 0.00 23.07 0.10438 0.59424 0.00000
3234.40 0.82936 0.82936 56.93428 23.62 0.00 23.62 -0.08312 -0.35677 0.00000
3236.04 0.82912 0.82912 55.37761 27.45 0.00 27.45 -0.08312 -0.32458 0.00000
3239.48 0.83022 0.83022 54.06689 30.66 0.00 30.66 -0.08312 -0.29617 0.00000
3241.04 0.83131 0.83131 52.91595 33.34 0.00 33.34 -0.08312 -0.27111 0.00000
3244.41 0.83102 0.83102 51.84053 35.58 0.00 35.58 -0.08312 -0.24899 0.00000
3246.04 0.83075 0.83075 50.89074 37.44 0.00 37.44 -0.08312 -0.22948 0.00000
3249.48 0.82999 0.82999 50.02792 38.97 0.00 38.97 -0.08312 -0.21226 0.00000
3251.06 0.82924 0.82924 49.26270 40.23 0.00 40.23 -0.08312 -0.19707 0.00000
3254.40 0.82837 0.82837 48.57735 41.25 0.00 41.25 -0.08312 -0.18366 0.00000
3256.04 0.82753 0.82753 47.96946 42.08 0.00 42.08 -0.08312 -0.17183 0.00000
3259.48 0.82786 0.82786 47.48447 42.74 0.00 42.74 -0.08312 -0.16140 0.00000
3261.05 0.82817 0.82817 47.05709 43.27 0.00 43.27 -0.08312 -0.15219 0.00000
3264.40 0.74086 0.74086 28.18237 42.61 0.00 42.61 -0.02062 0.15373 0.00000
3266.04 0.74166 0.74166 29.20541 40.97 0.00 40.97 -0.02062 0.13322 0.00000
3269.48 0.74178 0.74178 30.07997 39.64 0.00 39.64 -0.02062 0.11512 0.00000
3271.06 0.74191 0.74191 30.85232 38.56 0.00 38.56 -0.02062 0.09915 0.00000
3274.40 1.09501 1.09501 105.65427 42.05 0.00 42.05 -0.27062 -1.10612 0.00000
3276.04 1.09558 1.09558 100.96335 49.26 0.00 49.26 -0.27062 -1.00783 0.00000
3279.48 1.09638 1.09638 96.83876 55.10 0.00 55.10 -0.27062 -0.92110 0.00000
3281.04 1.09713 1.09713 93.20158 59.80 0.00 59.80 -0.27062 -0.84457 0.00000
3284.40 0.74377 0.74377 15.82284 59.17 0.00 59.17 -0.02062 0.41413 0.00000
3286.05 0.74293 0.74293 18.23767 54.22 0.00 54.22 -0.02062 0.36298 0.00000
3289.48 0.74174 0.74174 20.34679 50.11 0.00 50.11 -0.02062 0.31785 0.00000
3291.05 0.74063 0.74063 22.20454 46.72 0.00 46.72 -0.02062 0.27803 0.00000
3294.41 0.38689 0.38689 -50.26473 39.57 0.00 39.57 0.22938 1.43407 0.00000
3296.04 0.38566 0.38566 -43.52059 29.40 0.00 29.40 0.22938 1.29234 0.00000
3299.48 0.38464 0.38464 -37.56700 21.17 0.00 21.17 0.22938 1.16729 0.00000
3301.05 0.38369 0.38369 -32.31625 14.57 0.00 14.57 0.22938 1.05694 0.00000
3304.41 0.64791 0.64791 27.92216 12.60 0.00 12.60 0.04188 0.06620 0.00000
3306.05 0.64778 0.64778 28.05301 14.41 0.00 14.41 0.04188 0.06334 0.00000
3309.48 0.64785 0.64785 28.17775 16.02 0.00 16.02 0.04188 0.06081 0.00000
3311.05 0.64791 0.64791 28.28756 17.46 0.00 17.46 0.04188 0.05859 0.00000
3314.40 0.47053 0.47053 -8.72050 16.55 0.00 16.55 0.16688 0.65221 0.00000
3316.04 0.46945 0.46945 -6.03191 13.74 0.00 13.74 0.16688 0.59511 0.00000
3319.48 0.46806 0.46806 -3.68003 11.55 0.00 11.55 0.16688 0.54473 0.00000
3321.04 0.46669 0.46669 -1.61227 9.88 0.00 9.88 0.16688 0.50028 0.00000
3324.40 0.73166 0.73166 55.87139 11.91 0.00 11.91 -0.02062 -0.43233 0.00000
3326.04 0.73221 0.73221 53.57323 16.95 0.00 16.95 -0.02062 -0.38389 0.00000
3329.48 0.73238 0.73238 51.52989 21.14 0.00 21.14 -0.02062 -0.34116 0.00000
3331.04 0.73253 0.73253 49.72692 24.61 0.00 24.61 -0.02062 -0.30345 0.00000
3334.40 0.73238 0.73238 48.12260 27.47 0.00 27.47 -0.02062 -0.27017 0.00000
3336.04 0.73224 0.73224 46.70678 29.81 0.00 29.81 -0.02062 -0.24082 0.00000
3339.47 0.73141 0.73141 45.42327 31.73 0.00 31.73 -0.02062 -0.21491 0.00000
3341.04 0.73061 0.73061 44.28784 33.27 0.00 33.27 -0.02062 -0.19205 0.00000
3344.41 0.55505 0.55505 6.30454 32.33 0.00 32.33 0.10438 0.42370 0.00000
3346.05 0.55572 0.55572 8.14011 29.38 0.00 29.38 0.10438 0.38613 0.00000
3349.48 0.55503 0.55503 9.69800 26.97 0.00 26.97 0.10438 0.35299 0.00000
3351.05 0.55436 0.55436 11.06986 25.02 0.00 25.02 0.10438 0.32374 0.00000
3354.40 0.90763 0.90763 86.44225 27.81 0.00 27.81 -0.14562 -0.89325 0.00000
3356.04 0.90838 0.90838 82.25627 34.46 0.00 34.46 -0.14562 -0.80529 0.00000
3359.49 0.90936 0.90936 78.57790 39.87 0.00 39.87 -0.14562 -0.72768 0.00000
3361.05 0.91028 0.91028 75.33513 44.23 0.00 44.23 -0.14562 -0.65921 0.00000
3364.40 0.47093 0.47093 -20.12448 42.28 0.00 42.28 0.16688 0.89019 0.00000
3366.05 0.47216 0.47216 -15.98054 35.18 0.00 35.18 0.16688 0.80509 0.00000
3369.48 0.47233 0.47233 -12.36852 29.37 0.00 29.37 0.16688 0.73001 0.00000
3371.05 0.47248 0.47248 -9.18146 24.65 0.00 24.65 0.16688 0.66376 0.00000
3374.41 0.65011 0.65011 30.73904 23.02 0.00 23.02 0.04188 0.00971 0.00000
3376.04 0.65146 0.65146 30.62240 23.92 0.00 23.92 0.04188 0.01350 0.00000
3379.48 0.65211 0.65211 30.49306 24.70 0.00 24.70 0.04188 0.01683 0.00000
3381.05 0.65272 0.65272 30.38120 25.38 0.00 25.38 0.04188 0.01978 0.00000
3384.41 0.47554 0.47554 -6.83628 23.77 0.00 23.77 0.16688 0.61797 0.00000
3386.04 0.47463 0.47463 -4.33307 20.32 0.00 20.32 0.16688 0.56490 0.00000
3389.47 0.47483 0.47483 -2.07545 17.55 0.00 17.55 0.16688 0.51807 0.00000
3391.04 0.47505 0.47505 -0.08174 15.36 0.00 15.36 0.16688 0.47675 0.00000
3394.41 0.29874 0.29874 -35.38276 11.47 0.00 11.47 0.29188 1.03589 0.00000
3396.05 0.29869 0.29869 -31.18378 6.20 0.00 6.20 0.29188 0.94835 0.00000
3399.48 0.29959 0.29959 -27.43340 2.03 0.00 2.03 0.29188 0.87112 0.00000
3401.05 0.30048 0.30048 -24.11988 -1.25 0.00 -1.25 0.29188 0.80297 0.00000
3404.41 0.56469 0.56469 34.33106 -0.50 0.00 -0.50 0.10438 -0.15054 0.00000
3406.05 0.56456 0.56456 32.88491 3.51 0.00 3.51 0.10438 -0.12055 0.00000
3409.48 0.56363 0.56363 31.57057 6.89 0.00 6.89 0.10438 -0.09409 0.00000
3411.04 0.56275 0.56275 30.40736 9.73 0.00 9.73 0.10438 -0.07074 0.00000
3414.41 0.91642 0.91642 103.57127 16.46 0.00 16.46 -0.14562 -1.24131 0.00000
3416.05 0.91759 0.91759 97.43976 26.35 0.00 26.35 -0.14562 -1.11241 0.00000
3419.48 0.91638 0.91638 91.92244 34.39 0.00 34.39 -0.14562 -0.99867 0.00000
3421.05 0.91523 0.91523 87.04973 40.87 0.00 40.87 -0.14562 -0.89831 0.00000
3424.40 0.91481 0.91481 82.77953 46.05 0.00 46.05 -0.14562 -0.80976 0.00000
3426.07 0.91441 0.91441 79.00993 50.15 0.00 50.15 -0.14562 -0.73163 0.00000
3429.48 0.91543 0.91543 75.74940 53.36 0.00 53.36 -0.14562 -0.66268 0.00000
3431.05 0.91642 0.91642 72.87720 55.82 0.00 55.82 -0.14562 -0.60185 0.00000
3434.41 0.65227 0.65227 14.73907 54.41 0.00 54.41 0.04188 0.34520 0.00000
3436.05 0.65246 0.65246 16.46141 49.84 0.00 49.84 0.04188 0.30952 0.00000
3439.48 0.65223 0.65223 17.96138 46.00 0.00 46.00 0.04188 0.27803 0.00000
3441.05 0.65199 0.65199 19.28389 42.78 0.00 42.78 0.04188 0.25025 0.00000
3444.41 0.82957 0.82957 57.57253 42.27 0.00 42.27 -0.08312 -0.36986 0.00000
3446.04 0.83087 0.83087 56.01588 43.98 0.00 43.98 -0.08312 -0.33612 0.00000
3449.48 0.83152 0.83152 54.61813 45.31 0.00 45.31 -0.08312 -0.30636 0.00000
3451.04 0.83214 0.83214 53.38717 46.33 0.00 46.33 -0.08312 -0.28010 0.00000
3454.40 0.65402 0.65402 15.13717 44.91 0.00 44.91 0.04188 0.33867 0.00000
3456.04 0.65219 0.65219 16.72512 41.50 0.00 41.50 0.04188 0.30375 0.00000
3459.48 0.65320 0.65320 18.25252 38.68 0.00 38.68 0.04188 0.27294 0.00000
3461.04 0.65420 0.65420 19.60528 36.36 0.00 36.36 0.04188 0.24576 0.00000
3464.41 0.56482 0.56482 2.17232 33.36 0.00 33.36 0.10438 0.51956 0.00000
3466.04 0.56361 0.56361 4.45886 29.83 0.00 29.83 0.10438 0.47072 0.00000
3469.48 0.56237 0.56237 6.46825 26.96 0.00 26.96 0.10438 0.42762 0.00000
3471.04 0.56121 0.56121 8.23773 24.65 0.00 24.65 0.10438 0.38959 0.00000
3474.40 0.73618 0.73618 46.83495 24.99 0.00 24.99 -0.02062 -0.23955 0.00000
3476.04 0.73490 0.73490 45.53745 27.49 0.00 27.49 -0.02062 -0.21380 0.00000
3479.48 0.73634 0.73634 44.51588 29.55 0.00 29.55 -0.02062 -0.19107 0.00000
3481.05 0.73777 0.73777 43.62184 31.26 0.00 31.26 -0.02062 -0.17102 0.00000
3484.40 0.65055 0.65055 24.29166 31.57 0.00 31.57 0.04188 0.14447 0.00000
3486.05 0.65141 0.65141 24.91267 30.75 0.00 30.75 0.04188 0.13240 0.00000
3489.48 0.65253 0.65253 25.47746 30.10 0.00 30.10 0.04188 0.12175 0.00000
3491.04 0.65361 0.65361 25.98043 29.59 0.00 29.59 0.04188 0.11235 0.00000
3494.40 0.65287 0.65287 26.34261 29.18 0.00 29.18 0.04188 0.10406 0.00000
3496.04 0.65218 0.65218 26.66070 28.87 0.00 28.87 0.04188 0.09675 0.00000
3499.48 0.65201 0.65201 26.96268 28.63 0.00 28.63 0.04188 0.09029 0.00000
3501.04 0.65186 0.65186 27.22874 28.45 0.00 28.45 0.04188 0.08459 0.00000
3504.40 0.91503 0.91503 82.98447 31.58 0.00 31.58 -0.14562 -0.81381 0.00000
3506.04 0.91383 0.91383 79.15344 37.40 0.00 37.40 -0.14562 -0.73520 0.00000
3509.48 0.91425 0.91425 75.84444 42.12 0.00 42.12 -0.14562 -0.66584 0.00000
3511.06 0.91465 0.91465 72.92584 45.92 0.00 45.92 -0.14562 -0.60464 0.00000
3514.41 0.73792 0.73792 33.26268 46.76 0.00 46.76 -0.02062 0.04495 0.00000
3516.04 0.73746 0.73746 33.61058 45.19 0.00 45.19 -0.02062 0.03724 0.00000
3519.48 0.73666 0.73666 33.89922 43.85 0.00 43.85 -0.02062 0.03043 0.00000
3521.04 0.73587 0.73587 34.14967 42.69 0.00 42.69 -0.02062 0.02442 0.00000
3524.41 0.55842 0.55842 -2.70194 39.52 0.00 39.52 0.10438 0.61471 0.00000
3526.04 0.55722 0.55722 0.12235 34.72 0.00 34.72 0.10438 0.55467 0.00000
3529.48 0.55786 0.55786 2.69579 30.80 0.00 30.80 0.10438 0.50170 0.00000
3531.04 0.55846 0.55846 4.96832 27.63 0.00 27.63 0.10438 0.45495 0.00000
3534.40 0.73608 0.73608 44.06217 27.26 0.00 27.26 -0.02062 -0.18188 0.00000
3536.04 0.73744 0.73744 43.21677 29.19 0.00 29.19 -0.02062 -0.16291 0.00000
3539.48 0.73640 0.73640 42.36332 30.79 0.00 30.79 -0.02062 -0.14617 0.00000
3541.05 0.73536 0.73536 41.60440 32.11 0.00 32.11 -0.02062 -0.13140 0.00000
3544.40 0.29437 0.29437 -51.65903 27.74 0.00 27.74 0.29188 1.37060 0.00000
3546.04 0.29405 0.29405 -45.58268 18.75 0.00 18.75 0.29188 1.24369 0.00000
3549.48 0.29472 0.29472 -40.17573 11.50 0.00 11.50 0.29188 1.13171 0.00000
3551.04 0.29537 0.29537 -35.40169 5.70 0.00 5.70 0.29188 1.03291 0.00000
3554.41 0.29654 0.29654 -31.16098 1.12 0.00 1.12 0.29188 0.94573 0.00000
3556.04 0.29769 0.29769 -27.41350 -2.46 0.00 -2.46 0.29188 0.86881 0.00000
3559.48 0.29641 0.29641 -24.21694 -5.21 0.00 -5.21 0.29188 0.80093 0.00000
3561.05 0.29513 0.29513 -21.40374 -7.28 0.00 -7.28 0.29188 0.74104 0.00000
3564.41 0.64862 0.64862 55.27652 -4.43 0.00 -4.43 0.04188 -0.50298 0.00000
3566.05 0.64959 0.64959 52.24639 2.42 0.00 2.42 0.04188 -0.43888 0.00000
3569.48 0.64988 0.64988 49.54552 8.12 0.00 8.12 0.04188 -0.38232 0.00000
3571.04 0.65014 0.65014 47.16270 12.85 0.00 12.85 0.04188 -0.33241 0.00000
3574.41 0.82538 0.82538 82.04868 18.94 0.00 18.94 -0.08312 -0.88397 0.00000
3576.04 0.82444 0.82444 77.48135 26.10 0.00 26.10 -0.08312 -0.78975 0.00000
3579.48 0.82293 0.82293 73.41828 31.90 0.00 31.90 -0.08312 -0.70662 0.00000
3581.04 0.82143 0.82143 69.82520 36.58 0.00 36.58 -0.08312 -0.63327 0.00000
3584.40 0.55720 0.55720 11.15340 37.04 0.00 37.04 0.10438 0.32484 0.00000
3586.04 0.55734 0.55734 12.40480 34.07 0.00 34.07 0.10438 0.29890 0.00000
3589.48 0.55803 0.55803 13.53644 31.58 0.00 31.58 0.10438 0.27602 0.00000
3591.04 0.55870 0.55870 14.53807 29.52 0.00 29.52 0.10438 0.25582 0.00000
3594.40 0.99850 0.99850 107.97455 33.25 0.00 33.25 -0.20812 -1.25096 0.00000
3596.04 0.99769 0.99769 102.04630 41.70 0.00 41.70 -0.20812 -1.12828 0.00000
3599.48 0.99883 0.99883 96.90500 48.49 0.00 48.49 -0.20812 -1.02002 0.00000
3601.05 0.99993 0.99993 92.37320 53.92 0.00 53.92 -0.20812 -0.92451 0.00000
3604.40 0.82492 0.82492 51.33891 56.03 0.00 56.03 -0.08312 -0.24464 0.00000
3606.05 0.82615 0.82615 50.48555 55.43 0.00 55.43 -0.08312 -0.22564 0.00000
3609.48 0.82589 0.82589 49.66870 54.80 0.00 54.80 -0.08312 -0.20887 0.00000
3611.05 0.82567 0.82567 48.94777 54.15 0.00 54.15 -0.08312 -0.19408 0.00000
3614.40 0.73759 0.73759 29.79933 52.41 0.00 52.41 -0.02062 0.11677 0.00000
3616.04 0.73762 0.73762 30.57666 49.80 0.00 49.80 -0.02062 0.10061 0.00000
3619.48 0.73819 0.73819 31.28849 47.58 0.00 47.58 -0.02062 0.08634 0.00000
3621.04 0.73872 0.73872 31.91822 45.70 0.00 45.70 -0.02062 0.07376 0.00000
3624.40 1.00433 1.00433 88.08261 47.38 0.00 47.38 -0.20812 -0.83073 0.00000
3626.04 1.00554 1.00554 84.62476 51.97 0.00 51.97 -0.20812 -0.75748 0.00000
3629.48 1.00545 1.00545 81.51849 55.63 0.00 55.63 -0.20812 -0.69285 0.00000
3631.05 1.00537 1.00537 78.77711 58.51 0.00 58.51 -0.20812 -0.63582 0.00000
3634.40 0.56542 0.56542 -16.22613 55.31 0.00 55.31 0.10438 0.90346 0.00000
3636.04 0.56606 0.56606 -11.68269 47.16 0.00 47.16 0.10438 0.80945 0.00000
3639.48 0.56658 0.56658 -7.67626 40.47 0.00 40.47 0.10438 0.72650 0.00000
3641.04 0.56706 0.56706 -4.13999 35.02 0.00 35.02 0.10438 0.65331 0.00000
3644.40 0.83001 0.83001 54.46367 33.86 0.00 33.86 -0.08312 -0.30465 0.00000
3646.04 0.82858 0.82858 53.14393 36.20 0.00 36.20 -0.08312 -0.27859 0.00000
3649.48 0.82821 0.82821 52.02243 38.13 0.00 38.13 -0.08312 -0.25559 0.00000
3651.05 0.82783 0.82783 51.03049 39.71 0.00 39.71 -0.08312 -0.23530 0.00000
3654.40 0.21047 0.21047 -79.52091 33.36 0.00 33.36 0.35438 1.86716 0.00000
3656.04 0.21004 0.21004 -70.99910 20.58 0.00 20.58 0.35438 1.68918 0.00000
3659.48 0.20917 0.20917 -63.50281 10.25 0.00 10.25 0.35438 1.53215 0.00000
3661.04 0.20837 0.20837 -56.89024 1.96 0.00 1.96 0.35438 1.39359 0.00000
3664.41 0.56037 0.56037 23.05084 -0.26 0.00 -0.26 0.10438 0.08015 0.00000
3666.05 0.55992 0.55992 22.89243 2.47 0.00 2.47 0.10438 0.08300 0.00000
3669.48 0.56089 0.56089 22.81794 4.87 0.00 4.87 0.10438 0.08551 0.00000
3671.04 0.56183 0.56183 22.75674 6.98 0.00 6.98 0.10438 0.08773 0.00000
3674.41 0.65033 0.65033 41.20499 9.92 0.00 9.92 0.04188 -0.20810 0.00000
3676.04 0.65068 0.65068 39.81018 13.52 0.00 13.52 0.04188 -0.17869 0.00000
3679.48 0.65159 0.65159 38.60795 16.54 0.00 16.54 0.04188 -0.15274 0.00000
3681.05 0.65246 0.65246 37.55082 19.07 0.00 19.07 0.04188 -0.12985 0.00000
3684.40 0.82994 0.82994 73.68825 23.37 0.00 23.37 -0.08312 -0.70523 0.00000
3686.04 0.83111 0.83111 70.23153 29.09 0.00 29.09 -0.08312 -0.63204 0.00000
3689.48 0.83036 0.83036 67.09577 33.75 0.00 33.75 -0.08312 -0.56747 0.00000
3691.04 0.82961 0.82961 64.32470 37.51 0.00 37.51 -0.08312 -0.51048 0.00000
3694.40 0.91657 0.91657 80.37924 41.61 0.00 41.61 -0.14562 -0.75800 0.00000
3696.04 0.91540 0.91540 76.86501 45.96 0.00 45.96 -0.14562 -0.68596 0.00000
3699.48 0.91587 0.91587 73.83661 49.42 0.00 49.42 -0.14562 -0.62239 0.00000
3701.05 0.91631 0.91631 71.16528 52.13 0.00 52.13 -0.14562 -0.56630 0.00000
3704.40 0.65307 0.65307 13.27156 50.97 0.00 50.97 0.04188 0.37658 0.00000
3706.04 0.65414 0.65414 15.21340 46.65 0.00 46.65 0.04188 0.33720 0.00000
3709.48 0.65338 0.65338 16.84457 43.04 0.00 43.04 0.04188 0.30245 0.00000
3711.05 0.65269 0.65269 18.28274 40.05 0.00 40.05 0.04188 0.27180 0.00000
3714.41 0.56551 0.56551 1.10261 36.48 0.00 36.48 0.10438 0.54254 0.00000
3716.04 0.56644 0.56644 3.62145 32.46 0.00 32.46 0.10438 0.49099 0.00000
3719.49 0.56501 0.56501 5.73627 29.19 0.00 29.19 0.10438 0.44551 0.00000
3721.05 0.56366 0.56366 7.59767 26.54 0.00 26.54 0.10438 0.40538 0.00000
3724.40 0.56476 0.56476 9.35013 24.42 0.00 24.42 0.10438 0.36996 0.00000
3726.04 0.56584 0.56584 10.90163 22.74 0.00 22.74 0.10438 0.33872 0.00000
3729.48 0.56591 0.56591 12.22842 21.42 0.00 21.42 0.10438 0.31115 0.00000
3731.04 0.56596 0.56596 13.39847 20.41 0.00 20.41 0.10438 0.28682 0.00000
3734.41 0.47804 0.47804 -4.08530 18.56 0.00 18.56 0.16688 0.56315 0.00000
3736.04 0.47823 0.47823 -1.83857 16.02 0.00 16.02 0.16688 0.51653 0.00000
3739.49 0.47915 0.47915 0.18005 14.04 0.00 14.04 0.16688 0.47539 0.00000
3741.04 0.48004 0.48004 1.96531 12.52 0.00 12.52 0.16688 0.43910 0.00000
3744.40 0.65627 0.65627 40.54996 13.54 0.00 13.54 0.04188 -0.18852 0.00000
3746.05 0.65627 0.65627 39.24892 16.64 0.00 16.64 0.04188 -0.16141 0.00000
3749.48 0.65747 0.65747 38.15849 19.24 0.00 19.24 0.04188 -0.13750 0.00000
3751.05 0.65862 0.65862 37.20082 21.41 0.00 21.41 0.04188 -0.11639 0.00000
3754.40 0.39360 0.39360 -19.29643 19.94 0.00 19.94 0.22938 0.79561 0.00000
3756.05 0.39298 0.39298 -16.12849 15.51 0.00 15.51 0.22938 0.72899 0.00000
3759.48 0.39380 0.39380 -13.26793 11.96 0.00 11.96 0.22938 0.67021 0.00000
3761.05 0.39459 0.39459 -10.74042 9.14 0.00 9.14 0.22938 0.61835 0.00000
3764.40 0.92349 0.92349 102.60775 13.47 0.00 13.47 -0.14562 -1.21418 0.00000
3766.04 0.92361 0.92361 96.57941 23.60 0.00 23.60 -0.14562 -1.08846 0.00000
3769.48 0.92247 0.92247 91.20036 31.87 0.00 31.87 -0.14562 -0.97754 0.00000
3771.04 0.92134 0.92134 86.44842 38.57 0.00 38.57 -0.14562 -0.87967 0.00000
3774.41 0.39215 0.39215 -28.86237 37.42 0.00 37.42 0.22938 0.99345 0.00000
3776.04 0.39172 0.39172 -24.56833 29.88 0.00 29.88 0.22938 0.90356 0.00000
3779.48 0.39025 0.39025 -20.83190 23.69 0.00 23.69 0.22938 0.82425 0.00000
3781.05 0.38879 0.38879 -17.54282 18.65 0.00 18.65 0.22938 0.75426 0.00000
3784.40 0.65384 0.65384 41.02626 17.83 0.00 17.83 0.04188 -0.20087 0.00000
3786.04 0.65449 0.65449 39.68677 20.48 0.00 20.48 0.04188 -0.17231 0.00000
3789.48 0.65365 0.65365 38.43695 22.67 0.00 22.67 0.04188 -0.14712 0.00000
3791.05 0.65283 0.65283 37.33003 24.46 0.00 24.46 0.04188 -0.12488 0.00000
3794.40 0.82961 0.82961 73.46214 28.10 0.00 28.10 -0.08312 -0.70085 0.00000
3796.04 0.83011 0.83011 69.99757 33.23 0.00 33.23 -0.08312 -0.62818 0.00000
3799.48 0.83063 0.83063 66.94479 37.38 0.00 37.38 -0.08312 -0.56405 0.00000
3801.05 0.83113 0.83113 64.25320 40.70 0.00 40.70 -0.08312 -0.50747 0.00000
3804.15 0.82983 0.82983 61.79411 43.32 0.00 43.32 -0.08312 -0.45755 0.00000
3806.41 0.91666 0.91666 78.14174 46.46 0.00 46.46 -0.14562 -0.71129 0.00000
3809.50 0.91749 0.91749 74.98744 50.00 0.00 50.00 -0.14562 -0.64474 0.00000
3811.07 0.91829 0.91829 72.20697 52.78 0.00 52.78 -0.14562 -0.58602 0.00000
3814.04 0.91711 0.91711 69.66328 54.91 0.00 54.91 -0.14562 -0.53421 0.00000
3816.41 0.56344 0.56344 -6.68375 52.16 0.00 52.16 0.10438 0.70268 0.00000
3819.51 0.56223 0.56223 -3.36271 45.43 0.00 45.43 0.10438 0.63229 0.00000
3821.05 0.56104 0.56104 -0.43881 39.86 0.00 39.86 0.10438 0.57018 0.00000
3824.03 0.56011 0.56011 2.14675 35.27 0.00 35.27 0.10438 0.51538 0.00000
3826.41 0.55918 0.55918 4.42306 31.51 0.00 31.51 0.10438 0.46703 0.00000
3829.50 0.55845 0.55845 6.43615 28.44 0.00 28.44 0.10438 0.42436 0.00000
3831.05 0.55774 0.55774 8.20920 25.96 0.00 25.96 0.10438 0.38672 0.00000
3834.04 0.55886 0.55886 9.85746 23.97 0.00 23.97 0.10438 0.35350 0.00000
3836.41 0.73625 0.73625 48.36689 24.57 0.00 24.57 -0.02062 -0.27140 0.00000
3839.50 0.73541 0.73541 46.91079 27.28 0.00 27.28 -0.02062 -0.24189 0.00000
3841.04 0.73465 0.73465 45.62442 29.52 0.00 29.52 -0.02062 -0.21586 0.00000
3844.03 0.73603 0.73603 44.58823 31.35 0.00 31.35 -0.02062 -0.19289 0.00000
3846.41 0.82551 0.82551 62.20482 33.95 0.00 33.95 -0.08312 -0.47042 0.00000
3849.49 0.82447 0.82447 59.96775 37.14 0.00 37.14 -0.08312 -0.42486 0.00000
3851.04 0.82348 0.82348 57.99035 39.71 0.00 39.71 -0.08312 -0.38465 0.00000
3854.04 0.82494 0.82494 56.35770 41.76 0.00 41.76 -0.08312 -0.34918 0.00000
3856.41 0.73823 0.73823 36.39919 42.31 0.00 42.31 -0.02062 -0.02008 0.00000
3859.48 0.73871 0.73871 36.42515 41.61 0.00 41.61 -0.02062 -0.02015 0.00000
3861.05 0.73916 0.73916 36.44923 41.00 0.00 41.00 -0.02062 -0.02020 0.00000
3864.04 0.73960 0.73960 36.47306 40.47 0.00 40.47 -0.02062 -0.02025 0.00000
3866.41 0.91629 0.91629 73.54422 42.18 0.00 42.18 -0.14562 -0.61589 0.00000
3869.48 0.91771 0.91771 70.95705 45.72 0.00 45.72 -0.14562 -0.56056 0.00000
3871.05 0.91911 0.91911 68.68097 48.55 0.00 48.55 -0.14562 -0.51174 0.00000
3874.03 0.92011 0.92011 66.66158 50.80 0.00 50.80 -0.14562 -0.46867 0.00000
3876.41 0.83295 0.83295 46.35960 51.47 0.00 51.47 -0.08312 -0.13287 0.00000
3879.48 0.83211 0.83211 46.03827 50.85 0.00 50.85 -0.08312 -0.12702 0.00000
3881.05 0.83132 0.83132 45.75228 50.27 0.00 50.27 -0.08312 -0.12185 0.00000
3884.04 0.83045 0.83045 45.49195 49.72 0.00 49.72 -0.08312 -0.11730 0.00000
3886.41 0.82960 0.82960 45.25805 49.21 0.00 49.21 -0.08312 -0.11328 0.00000
3889.48 0.82986 0.82986 45.10030 48.74 0.00 48.74 -0.08312 -0.10973 0.00000
3891.05 0.83010 0.83010 44.96147 48.30 0.00 48.30 -0.08312 -0.10660 0.00000
3894.04 0.82898 0.82898 44.77507 47.90 0.00 47.90 -0.08312 -0.10384 0.00000
3896.41 0.73975 0.73975 26.08101 46.43 0.00 46.43 -0.02062 0.19639 0.00000
3899.48 0.73877 0.73877 27.25946 44.11 0.00 44.11 -0.02062 0.17086 0.00000
3901.05 0.73783 0.73783 28.29607 42.18 0.00 42.18 -0.02062 0.14833 0.00000
3904.04 0.73590 0.73590 29.15735 40.60 0.00 40.60 -0.02062 0.12846 0.00000
3906.41 0.46958 0.46958 -25.66645 36.03 0.00 36.03 0.16688 1.00430 0.00000
3909.48 0.47019 0.47019 -20.90823 29.05 0.00 29.05 0.16688 0.90578 0.00000
3911.07 0.47078 0.47078 -16.70742 23.42 0.00 23.42 0.16688 0.81885 0.00000
3914.03 0.47190 0.47190 -12.97201 18.92 0.00 18.92 0.16688 0.74215 0.00000
3916.41 0.47299 0.47299 -9.67077 15.36 0.00 15.36 0.16688 0.67447 0.00000
3919.49 0.47408 0.47408 -6.75206 12.59 0.00 12.59 0.16688 0.61475 0.00000
3921.04 0.47516 0.47516 -4.17097 10.47 0.00 10.47 0.16688 0.56206 0.00000
3924.04 0.47526 0.47526 -1.93490 8.87 0.00 8.87 0.16688 0.51557 0.00000
3926.41 0.82788 0.82788 74.13673 12.08 0.00 12.08 -0.08312 -0.71663 0.00000
3929.48 0.82753 0.82753 70.54250 19.17 0.00 19.17 -0.08312 -0.64210 0.00000
3931.04 0.82722 0.82722 67.37103 25.03 0.00 25.03 -0.08312 -0.57634 0.00000
3934.03 0.82813 0.82813 64.62935 29.85 0.00 29.85 -0.08312 -0.51831 0.00000
3936.45 0.82899 0.82899 62.21303 33.80 0.00 33.80 -0.08312 -0.46712 0.00000
3939.48 0.82799 0.82799 59.99667 37.01 0.00 37.01 -0.08312 -0.42194 0.00000
3941.05 0.82703 0.82703 58.03713 39.60 0.00 39.60 -0.08312 -0.38208 0.00000
3944.03 0.82611 0.82611 56.30481 41.67 0.00 41.67 -0.08312 -0.34691 0.00000
3946.42 1.08965 1.08965 110.34778 46.57 0.00 46.57 -0.27062 -1.20926 0.00000
3949.48 1.09073 1.09073 105.09906 53.76 0.00 53.76 -0.27062 -1.09883 0.00000
3951.05 1.09179 1.09179 100.47302 59.53 0.00 59.53 -0.27062 -1.00139 0.00000
3954.04 1.09263 1.09263 96.38622 64.11 0.00 64.11 -0.27062 -0.91542 0.00000
3956.40 0.82904 0.82904 37.21068 64.42 0.00 64.42 -0.08312 0.05382 0.00000
3959.48 0.82826 0.82826 37.94638 61.26 0.00 61.26 -0.08312 0.03771 0.00000
3961.04 0.82750 0.82750 38.59230 58.56 0.00 58.56 -0.08312 0.02349 0.00000
3964.04 0.82645 0.82645 39.14388 56.24 0.00 56.24 -0.08312 0.01095 0.00000
3966.42 0.73727 0.73727 21.10071 53.17 0.00 53.17 -0.02062 0.29768 0.00000
3969.48 0.73823 0.73823 22.94427 49.51 0.00 49.51 -0.02062 0.26023 0.00000
3971.05 0.73918 0.73918 24.57548 46.48 0.00 46.48 -0.02062 0.22719 0.00000
3974.04 0.73896 0.73896 25.96452 43.98 0.00 43.98 -0.02062 0.19803 0.00000
3976.41 0.65060 0.65060 8.66407 40.84 0.00 40.84 0.04188 0.47010 0.00000
3979.47 0.64909 0.64909 11.00985 37.20 0.00 37.20 0.04188 0.41972 0.00000
3981.04 0.64760 0.64760 13.07177 34.24 0.00 34.24 0.04188 0.37527 0.00000
3984.04 0.64815 0.64815 14.98098 31.86 0.00 31.86 0.04188 0.33605 0.00000
3986.41 0.47239 0.47239 -20.38234 27.79 0.00 27.79 0.16688 0.89703 0.00000
3989.48 0.47133 0.47133 -16.31027 22.37 0.00 22.37 0.16688 0.81113 0.00000
3991.05 0.47034 0.47034 -12.71965 18.03 0.00 18.03 0.16688 0.73533 0.00000
3994.03 0.47045 0.47045 -9.50418 14.60 0.00 14.60 0.16688 0.66845 0.00000
3996.41 0.82310 0.82310 67.43168 16.29 0.00 16.29 -0.08312 -0.58173 0.00000
3999.50 0.82213 0.82213 64.56955 22.14 0.00 22.14 -0.08312 -0.52307 0.00000
4001.04 0.82117 0.82117 62.03899 26.98 0.00 26.98 -0.08312 -0.47131 0.00000
4004.04 0.82245 0.82245 59.90852 30.98 0.00 30.98 -0.08312 -0.42564 0.00000
4006.41 0.55930 0.55930 2.46075 31.00 0.00 31.00 0.10438 0.50803 0.00000
4009.50 0.56049 0.56049 4.79721 27.78 0.00 27.78 0.10438 0.46055 0.00000
4011.07 0.56164 0.56164 6.86364 25.20 0.00 25.20 0.10438 0.41864 0.00000
4014.04 0.56251 0.56251 8.68018 23.15 0.00 23.15 0.10438 0.38167 0.00000
4016.41 0.56335 0.56335 10.28665 21.54 0.00 21.54 0.10438 0.34905 0.00000
4019.52 0.56345 0.56345 11.67311 20.30 0.00 20.30 0.10438 0.32026 0.00000
4021.07 0.56353 0.56353 12.89604 19.36 0.00 19.36 0.10438 0.29486 0.00000
4024.04 0.56429 0.56429 14.00830 18.66 0.00 18.66 0.10438 0.27245 0.00000
4026.41 0.65316 0.65316 33.51730 19.26 0.00 19.26 0.04188 -0.04511 0.00000
4029.48 0.65191 0.65191 32.96583 20.91 0.00 20.91 0.04188 -0.03488 0.00000
4031.05 0.65072 0.65072 32.47535 22.30 0.00 22.30 0.04188 -0.02585 0.00000
4034.04 0.65152 0.65152 32.13134 23.47 0.00 23.47 0.04188 -0.01788 0.00000
4036.43 0.65227 0.65227 31.83001 24.47 0.00 24.47 0.04188 -0.01085 0.00000
4039.47 0.65167 0.65167 31.50312 25.32 0.00 25.32 0.04188 -0.00465 0.00000
4041.05 0.65108 0.65108 31.21225 26.03 0.00 26.03 0.04188 0.00082 0.00000
4044.04 0.65003 0.65003 30.92990 26.62 0.00 26.62 0.04188 0.00565 0.00000
4046.41 0.64898 0.64898 30.67520 27.12 0.00 27.12 0.04188 0.00991 0.00000
4049.48 0.64737 0.64737 30.41737 27.52 0.00 27.52 0.04188 0.01367 0.00000
4051.04 0.64584 0.64584 30.18454 27.85 0.00 27.85 0.04188 0.01699 0.00000
4054.03 0.64691 0.64691 30.09540 28.12 0.00 28.12 0.04188 0.01992 0.00000
4056.41 0.73606 0.73606 48.54498 29.43 0.00 29.43 -0.02062 -0.27529 0.00000
4059.48 0.73605 0.73605 47.10621 31.60 0.00 31.60 -0.02062 -0.24533 0.00000
4061.05 0.73602 0.73602 45.83582 33.35 0.00 33.35 -0.02062 -0.21889 0.00000
4064.04 0.73698 0.73698 44.76232 34.75 0.00 34.75 -0.02062 -0.19557 0.00000
4066.41 0.56165 0.56165 6.77039 33.70 0.00 33.70 0.10438 0.42060 0.00000
4069.48 0.56208 0.56208 8.57687 30.63 0.00 30.63 0.10438 0.38340 0.00000
4071.05 0.56249 0.56249 10.17208 28.13 0.00 28.13 0.10438 0.35057 0.00000
4074.04 0.56323 0.56323 11.59797 26.10 0.00 26.10 0.10438 0.32161 0.00000
4076.41 0.38767 0.38767 -24.19039 22.29 0.00 22.29 0.22938 0.89164 0.00000
4079.49 0.38835 0.38835 -20.41805 17.05 0.00 17.05 0.22938 0.81373 0.00000
4081.04 0.38901 0.38901 -17.08667 12.83 0.00 12.83 0.22938 0.74498 0.00000
4084.04 0.38996 0.38996 -14.12919 9.49 0.00 9.49 0.22938 0.68432 0.00000
4086.41 0.47902 0.47902 7.00872 7.95 0.00 7.95 0.16688 0.33300 0.00000
4089.48 0.47978 0.47978 7.98334 7.90 0.00 7.90 0.16688 0.31346 0.00000
4091.05 0.48050 0.48050 8.84582 7.96 0.00 7.96 0.16688 0.29621 0.00000
4094.03 0.48127 0.48127 9.61295 8.11 0.00 8.11 0.16688 0.28100 0.00000
4096.41 0.48200 0.48200 10.29244 8.33 0.00 8.33 0.16688 0.26757 0.00000
4099.48 0.48237 0.48237 10.87881 8.59 0.00 8.59 0.16688 0.25572 0.00000
4101.05 0.48274 0.48274 11.39836 8.89 0.00 8.89 0.16688 0.24527 0.00000
4104.04 0.48312 0.48312 11.85953 9.21 0.00 9.21 0.16688 0.23605 0.00000
4106.43 0.65975 0.65975 49.31663 11.73 0.00 11.73 0.04188 -0.36768 0.00000
4109.48 0.66024 0.66024 47.02715 16.02 0.00 16.02 0.04188 -0.31950 0.00000
4111.04 0.66070 0.66070 45.00864 19.55 0.00 19.55 0.04188 -0.27698 0.00000
4114.03 0.66020 0.66020 43.18399 22.43 0.00 22.43 0.04188 -0.23947 0.00000
4116.41 0.48346 0.48346 4.52354 22.60 0.00 22.60 0.16688 0.38922 0.00000
4119.48 0.48210 0.48210 5.71383 20.54 0.00 20.54 0.16688 0.36306 0.00000
4121.05 0.48074 0.48074 6.75636 18.86 0.00 18.86 0.16688 0.33998 0.00000
4124.03 0.47927 0.47927 7.66342 17.49 0.00 17.49 0.16688 0.31961 0.00000
4126.41 0.91850 0.91850 101.07968 21.83 0.00 21.83 -0.14562 -1.18733 0.00000
4129.49 0.91835 0.91835 95.18968 30.81 0.00 30.81 -0.14562 -1.06477 0.00000
4131.05 0.91820 0.91820 89.99231 38.07 0.00 38.07 -0.14562 -0.95664 0.00000
4134.04 0.91685 0.91685 85.34735 43.91 0.00 43.91 -0.14562 -0.86122 0.00000
4136.41 0.73922 0.73922 44.19194 46.36 0.00 46.36 -0.02062 -0.18145 0.00000
4139.49 0.73974 0.73974 43.30881 46.06 0.00 46.06 -0.02062 -0.16253 0.00000
4141.05 0.74024 0.74024 42.53158 45.69 0.00 45.69 -0.02062 -0.14583 0.00000
4144.03 0.73920 0.73920 41.77460 45.27 0.00 45.27 -0.02062 -0.13110 0.00000
4146.41 0.73821 0.73821 41.10310 44.82 0.00 44.82 -0.02062 -0.11811 0.00000
4149.48 0.73781 0.73781 40.53332 44.35 0.00 44.35 -0.02062 -0.10664 0.00000
4151.04 0.73741 0.73741 40.02832 43.87 0.00 43.87 -0.02062 -0.09652 0.00000
4154.04 0.73781 0.73781 39.61926 43.39 0.00 43.39 -0.02062 -0.08759 0.00000
4156.43 0.82636 0.82636 57.78558 44.02 0.00 44.02 -0.08312 -0.37751 0.00000
4159.51 0.82484 0.82484 56.05028 45.54 0.00 45.54 -0.08312 -0.34287 0.00000
4161.05 0.82338 0.82338 54.51337 46.68 0.00 46.68 -0.08312 -0.31231 0.00000
4164.04 0.82401 0.82401 53.24923 47.53 0.00 47.53 -0.08312 -0.28535 0.00000
4166.41 1.08902 1.08902 107.71028 51.41 0.00 51.41 -0.27062 -1.15494 0.00000
4169.49 1.08860 1.08860 102.69601 57.74 0.00 57.74 -0.27062 -1.05090 0.00000
4171.05 1.08820 1.08820 98.27058 62.76 0.00 62.76 -0.27062 -0.95911 0.00000
4174.03 1.08716 1.08716 94.33277 66.71 0.00 66.71 -0.27062 -0.87811 0.00000
4176.41 0.64547 0.64547 -1.76952 64.31 0.00 64.31 0.04188 0.68233 0.00000
4179.48 0.64662 0.64662 1.90275 56.75 0.00 56.75 0.04188 0.60698 0.00000
4181.04 0.64774 0.64774 5.14739 50.49 0.00 50.49 0.04188 0.54050 0.00000
4184.03 0.64659 0.64659 7.90833 45.32 0.00 45.32 0.04188 0.48184 0.00000
4186.41 0.82176 0.82176 47.38876 43.24 0.00 43.24 -0.08312 -0.16551 0.00000
4189.49 0.82184 0.82184 46.92738 43.70 0.00 43.70 -0.08312 -0.15582 0.00000
4191.05 0.82190 0.82190 46.51974 44.05 0.00 44.05 -0.08312 -0.14727 0.00000
4194.04 0.82108 0.82108 46.11835 44.32 0.00 44.32 -0.08312 -0.13972 0.00000
4196.41 0.82028 0.82028 45.76051 44.51 0.00 44.51 -0.08312 -0.13306 0.00000
4199.48 0.82046 0.82046 45.48709 44.64 0.00 44.64 -0.08312 -0.12719 0.00000
4201.05 0.82062 0.82062 45.24606 44.73 0.00 44.73 -0.08312 -0.12200 0.00000
4204.03 0.82131 0.82131 45.05923 44.78 0.00 44.78 -0.08312 -0.11743 0.00000
4206.41 0.64567 0.64567 7.84681 42.62 0.00 42.62 0.04188 0.48220 0.00000
4209.50 0.64553 0.64553 10.32657 38.68 0.00 38.68 0.04188 0.43039 0.00000
4211.04 0.64538 0.64538 12.51336 35.47 0.00 35.47 0.04188 0.38468 0.00000
4214.04 0.64474 0.64474 14.41876 32.88 0.00 32.88 0.04188 0.34435 0.00000
4216.41 0.82039 0.82039 53.14586 32.99 0.00 32.99 -0.08312 -0.28682 0.00000
4219.48 0.82117 0.82117 52.03327 35.29 0.00 35.29 -0.08312 -0.26286 0.00000
4221.04 0.82191 0.82191 51.05398 37.21 0.00 37.21 -0.08312 -0.24171 0.00000
4224.04 0.82115 0.82115 50.12158 38.78 0.00 38.78 -0.08312 -0.22305 0.00000
4226.41 0.90857 0.90857 67.82167 41.16 0.00 41.16 -0.14562 -0.50439 0.00000
4229.49 0.90825 0.90825 65.78073 44.17 0.00 44.17 -0.14562 -0.46218 0.00000
4231.06 0.90796 0.90796 63.97916 46.61 0.00 46.61 -0.14562 -0.42494 0.00000
4234.04 0.90738 0.90738 62.37376 48.56 0.00 48.56 -0.14562 -0.39208 0.00000
4236.41 0.99496 0.99496 79.48002 51.19 0.00 51.19 -0.20812 -0.66088 0.00000
4239.48 0.99611 0.99611 76.97875 54.37 0.00 54.37 -0.20812 -0.60761 0.00000
4241.05 0.99723 0.99723 74.77655 56.90 0.00 56.90 -0.20812 -0.56061 0.00000
4244.03 0.99633 0.99633 72.74284 58.88 0.00 58.88 -0.20812 -0.51914 0.00000
4246.41 1.08357 1.08357 89.46815 61.50 0.00 61.50 -0.27062 -0.78035 0.00000
4249.48 1.08255 1.08255 86.54048 64.62 0.00 64.62 -0.27062 -0.72038 0.00000
4251.05 1.08157 1.08157 83.95399 67.04 0.00 67.04 -0.27062 -0.66747 0.00000
4254.04 1.08173 1.08173 81.72070 68.90 0.00 68.90 -0.27062 -0.62078 0.00000
4256.41 1.17001 1.17001 98.27456 71.38 0.00 71.38 -0.33312 -0.87738 0.00000
4259.49 1.17038 1.17038 95.21877 74.37 0.00 74.37 -0.33312 -0.81335 0.00000
4261.05 1.17072 1.17072 92.52367 76.66 0.00 76.66 -0.33312 -0.75685 0.00000
4264.03 1.17122 1.17122 90.15461 78.39 0.00 78.39 -0.33312 -0.70700 0.00000
4266.41 0.90726 0.90726 32.49100 76.38 0.00 76.38 -0.14562 0.23037 0.00000
4269.48 0.90610 0.90610 34.55863 71.34 0.00 71.34 -0.14562 0.18613 0.00000
4271.05 0.90495 0.90495 36.37671 67.12 0.00 67.12 -0.14562 0.14710 0.00000
4274.04 0.90587 0.90587 38.07391 63.60 0.00 63.60 -0.14562 0.11266 0.00000
4276.41 0.81861 0.81861 21.05003 59.60 0.00 59.60 -0.08312 0.38007 0.00000
4279.49 0.81854 0.81854 23.66219 55.22 0.00 55.22 -0.08312 0.32558 0.00000
4281.06 0.81848 0.81848 25.96725 51.64 0.00 51.64 -0.08312 0.27749 0.00000
4284.04 0.81939 0.81939 28.04751 48.74 0.00 48.74 -0.08312 0.23507 0.00000
4286.41 0.82028 0.82028 29.88699 46.42 0.00 46.42 -0.08312 0.19763 0.00000
4289.48 0.81937 0.81937 31.42863 44.56 0.00 44.56 -0.08312 0.16460 0.00000
4291.06 0.81853 0.81853 32.78740 43.10 0.00 43.10 -0.08312 0.13546 0.00000
4294.03 0.81765 0.81765 33.97933 41.95 0.00 41.95 -0.08312 0.10974 0.00000
4296.15 0.81684 0.81684 35.02993 41.08 0.00 41.08 -0.08312 0.08705 0.00000
4299.85 0.55322 0.55322 -19.54556 37.16 0.00 37.16 0.10438 0.96041 0.00000
4301.04 0.55395 0.55395 -14.67635 30.77 0.00 30.77 0.10438 0.85970 0.00000
4304.03 0.55532 0.55532 -10.34503 25.68 0.00 25.68 0.10438 0.77084 0.00000
4306.05 0.55665 0.55665 -6.51768 21.67 0.00 21.67 0.10438 0.69243 0.00000
4309.85 0.73403 0.73403 33.90567 20.73 0.00 20.73 -0.02062 0.02766 0.00000
4311.04 0.73514 0.73514 34.23180 22.30 0.00 22.30 -0.02062 0.02198 0.00000
4314.04 0.73503 0.73503 34.46678 23.72 0.00 23.72 -0.02062 0.01697 0.00000
4316.04 0.73493 0.73493 34.67443 24.99 0.00 24.99 -0.02062 0.01255 0.00000
4319.85 0.55800 0.55800 -2.21930 23.96 0.00 23.96 0.10438 0.60423 0.00000
4321.04 0.55736 0.55736 0.57285 21.05 0.00 21.05 0.10438 0.54542 0.00000
4324.04 0.55850 0.55850 3.11846 18.79 0.00 18.79 0.10438 0.49354 0.00000
4326.05 0.55963 0.55963 5.37031 17.08 0.00 17.08 0.10438 0.44775 0.00000
4329.85 0.55930 0.55930 7.29344 15.81 0.00 15.81 0.10438 0.40736 0.00000
4331.04 0.55900 0.55900 8.98966 14.91 0.00 14.91 0.10438 0.37171 0.00000
4334.03 0.55954 0.55954 10.52549 14.30 0.00 14.30 0.10438 0.34026 0.00000
4336.05 0.56006 0.56006 11.88267 13.94 0.00 13.94 0.10438 0.31251 0.00000
4339.85 0.38490 0.38490 -23.93809 11.59 0.00 11.59 0.22938 0.88361 0.00000
4341.05 0.38597 0.38597 -20.19203 7.63 0.00 7.63 0.22938 0.80664 0.00000
4344.03 0.38504 0.38504 -16.97704 4.55 0.00 4.55 0.22938 0.73873 0.00000
4346.04 0.38414 0.38414 -14.14400 2.18 0.00 2.18 0.22938 0.67880 0.00000
4349.85 0.29633 0.29633 -30.11482 -0.68 0.00 -0.68 0.29188 0.92372 0.00000
4351.04 0.29662 0.29662 -26.53275 -3.93 0.00 -3.93 0.29188 0.84939 0.00000
4354.04 0.29691 0.29691 -23.37070 -6.40 0.00 -6.40 0.29188 0.78380 0.00000
4356.05 0.29720 0.29720 -20.57876 -8.24 0.00 -8.24 0.29188 0.72592 0.00000
4359.85 0.20764 0.20764 -36.72091 -10.64 0.00 -10.64 0.35438 0.97265 0.00000
4361.05 0.20628 0.20628 -33.29465 -13.50 0.00 -13.50 0.35438 0.89992 0.00000
4364.03 0.20575 0.20575 -30.23933 -15.65 0.00 -15.65 0.35438 0.83573 0.00000
4366.04 0.20525 0.20525 -27.54475 -17.21 0.00 -17.21 0.35438 0.77910 0.00000
4369.85 0.38035 0.38035 11.84679 -16.11 0.00 -16.11 0.22938 0.13355 0.00000
4371.04 0.37927 0.37927 11.25337 -12.86 0.00 -12.86 0.22938 0.14482 0.00000
4374.03 0.37903 0.37903 10.76450 -10.05 0.00 -10.05 0.22938 0.15477 0.00000
4376.04 0.37882 0.37882 10.33300 -7.62 0.00 -7.62 0.22938 0.16355 0.00000
4379.85 1.08340 1.08340 158.13425 3.18 0.00 3.18 -0.27062 -2.21106 0.00000
4381.04 1.08298 1.08298 147.15651 20.77 0.00 20.77 -0.27062 -1.98278 0.00000
4384.04 1.08359 1.08359 137.51701 35.07 0.00 35.07 -0.27062 -1.78135 0.00000
4386.05 1.08416 1.08416 129.01306 46.62 0.00 46.62 -0.27062 -1.60361 0.00000
4389.85 0.99606 0.99606 102.96275 54.78 0.00 54.78 -0.20812 -1.14900 0.00000
4391.04 0.99607 0.99607 97.64996 60.14 0.00 60.14 -0.20812 -1.03831 0.00000
4394.06 0.99571 0.99571 92.94483 64.27 0.00 64.27 -0.20812 -0.94064 0.00000
4396.04 0.99539 0.99539 88.79297 67.40 0.00 67.40 -0.20812 -0.85446 0.00000
4399.85 0.90606 0.90606 66.56099 68.61 0.00 68.61 -0.14562 -0.48063 0.00000
4401.04 0.90486 0.90486 64.61140 68.26 0.00 68.26 -0.14562 -0.44121 0.00000
4404.04 0.90413 0.90413 62.90739 67.73 0.00 67.73 -0.14562 -0.40644 0.00000
4406.05 0.90342 0.90342 61.40022 67.07 0.00 67.07 -0.14562 -0.37576 0.00000
4409.85 0.55231 0.55231 -13.92880 61.97 0.00 61.97 0.10438 0.84250 0.00000
4411.04 0.55370 0.55370 -9.69410 53.29 0.00 53.29 0.10438 0.75566 0.00000
4414.04 0.55430 0.55430 -5.98732 46.10 0.00 46.10 0.10438 0.67904 0.00000
4416.04 0.55486 0.55486 -2.71513 40.16 0.00 40.16 0.10438 0.61143 0.00000
4419.85 0.46727 0.46727 -18.35019 34.20 0.00 34.20 0.16688 0.84957 0.00000
4421.04 0.46778 0.46778 -14.47088 28.25 0.00 28.25 0.16688 0.76925 0.00000
4424.03 0.46797 0.46797 -11.05981 23.42 0.00 23.42 0.16688 0.69838 0.00000
4426.04 0.46815 0.46815 -8.04991 19.54 0.00 19.54 0.16688 0.63585 0.00000
4429.85 0.99764 0.99764 105.77870 22.99 0.00 22.99 -0.20812 -1.20608 0.00000
4431.04 0.99833 0.99833 100.17657 32.40 0.00 32.40 -0.20812 -1.08868 0.00000
4434.03 0.99731 0.99731 95.15476 40.08 0.00 40.08 -0.20812 -0.98508 0.00000
4436.04 0.99635 0.99635 90.72116 46.30 0.00 46.30 -0.20812 -0.89368 0.00000
4439.84 0.64238 0.64238 12.68279 46.93 0.00 46.93 0.04188 0.37815 0.00000
4441.04 0.64094 0.64094 14.51289 43.01 0.00 43.01 0.04188 0.33859 0.00000
4444.04 0.63942 0.63942 16.11533 39.75 0.00 39.75 0.04188 0.30368 0.00000
4446.04 0.63792 0.63792 17.52184 37.06 0.00 37.06 0.04188 0.27288 0.00000
4449.85 0.55001 0.55001 0.31235 33.74 0.00 33.74 0.10438 0.54350 0.00000
4451.04 0.55020 0.55020 2.80118 29.96 0.00 29.96 0.10438 0.49184 0.00000
4454.04 0.55112 0.55112 5.03351 26.89 0.00 26.89 0.10438 0.44625 0.00000
4456.04 0.55199 0.55199 7.00595 24.44 0.00 24.44 0.10438 0.40603 0.00000
4459.85 0.55259 0.55259 8.73847 22.49 0.00 22.49 0.10438 0.37054 0.00000
4461.03 0.55317 0.55317 10.26931 20.96 0.00 20.96 0.10438 0.33923 0.00000
4464.03 0.55330 0.55330 11.60145 19.78 0.00 19.78 0.10438 0.31160 0.00000
4466.04 0.55340 0.55340 12.77651 18.89 0.00 18.89 0.10438 0.28722 0.00000
4469.85 0.64237 0.64237 32.37371 19.32 0.00 19.32 0.04188 -0.03209 0.00000
4471.04 0.64319 0.64319 31.99569 20.84 0.00 20.84 0.04188 -0.02338 0.00000
4474.03 0.64235 0.64235 31.58688 22.12 0.00 22.12 0.04188 -0.01571 0.00000
4476.05 0.64158 0.64158 31.22437 23.22 0.00 23.22 0.04188 -0.00893 0.00000
4479.85 0.46402 0.46402 -6.17349 21.96 0.00 21.96 0.16688 0.59263 0.00000
4481.04 0.46274 0.46274 -3.83052 18.79 0.00 18.79 0.16688 0.54254 0.00000
4484.04 0.46386 0.46386 -1.65552 16.25 0.00 16.25 0.16688 0.49835 0.00000
4486.05 0.46494 0.46494 0.26831 14.26 0.00 14.26 0.16688 0.45935 0.00000
4489.85 0.72860 0.72860 57.45789 15.98 0.00 15.98 -0.02062 -0.46844 0.00000
4491.04 0.72792 0.72792 54.89661 20.71 0.00 20.71 -0.02062 -0.41576 0.00000
4494.04 0.72729 0.72729 52.63473 24.60 0.00 24.60 -0.02062 -0.36927 0.00000
4496.05 0.72667 0.72667 50.63612 27.78 0.00 27.78 -0.02062 -0.32825 0.00000
4499.85 0.55177 0.55177 11.91557 28.19 0.00 28.19 0.10438 0.30353 0.00000
4501.04 0.55307 0.55307 13.10252 26.34 0.00 26.34 0.10438 0.28010 0.00000
4504.04 0.55364 0.55364 14.12215 24.85 0.00 24.85 0.10438 0.25942 0.00000
4506.04 0.55418 0.55418 15.02407 23.64 0.00 23.64 0.10438 0.24118 0.00000
4509.85 0.46707 0.46707 -2.67896 21.58 0.00 21.58 0.16688 0.52288 0.00000
4511.05 0.46807 0.46807 -0.62039 18.85 0.00 18.85 0.16688 0.48100 0.00000
4514.04 0.46836 0.46836 1.16716 16.66 0.00 16.66 0.16688 0.44404 0.00000
4516.04 0.46862 0.46862 2.74482 14.93 0.00 14.93 0.16688 0.41143 0.00000
4519.85 0.91019 0.91019 96.79182 19.03 0.00 19.03 -0.14562 -1.10631 0.00000
4521.05 0.91111 0.91111 91.41113 27.86 0.00 27.86 -0.14562 -0.99329 0.00000
4524.03 0.91173 0.91173 86.65387 35.06 0.00 35.06 -0.14562 -0.89356 0.00000
4526.04 0.91230 0.91230 82.45781 40.88 0.00 40.88 -0.14562 -0.80557 0.00000
4529.85 0.73713 0.73713 41.73436 43.38 0.00 43.38 -0.02062 -0.13234 0.00000
4531.05 0.73818 0.73818 41.15417 43.15 0.00 43.15 -0.02062 -0.11920 0.00000
4534.04 0.73948 0.73948 40.65999 42.89 0.00 42.89 -0.02062 -0.10760 0.00000
4536.04 0.74074 0.74074 40.22911 42.60 0.00 42.60 -0.02062 -0.09737 0.00000
4539.85 0.47522 0.47522 -15.83138 39.02 0.00 39.02 0.16688 0.80504 0.00000
4541.04 0.47409 0.47409 -12.28199 32.78 0.00 32.78 0.16688 0.72996 0.00000
4544.03 0.47486 0.47486 -9.06530 27.67 0.00 27.67 0.16688 0.66372 0.00000
4546.04 0.47558 0.47558 -6.22484 23.51 0.00 23.51 0.16688 0.60527 0.00000
4549.85 0.82863 0.82863 70.37376 24.52 0.00 24.52 -0.08312 -0.63749 0.00000
4551.04 0.82916 0.82916 67.26841 29.73 0.00 29.73 -0.08312 -0.57227 0.00000
4554.03 0.82997 0.82997 64.54510 33.99 0.00 33.99 -0.08312 -0.51472 0.00000
4556.04 0.83074 0.83074 62.14482 37.44 0.00 37.44 -0.08312 -0.46394 0.00000
4559.85 0.74376 0.74376 41.52507 39.13 0.00 39.13 -0.02062 -0.12135 0.00000
4561.04 0.74489 0.74489 41.01072 39.39 0.00 39.39 -0.02062 -0.10950 0.00000
4564.04 0.74477 0.74477 40.50291 39.55 0.00 39.55 -0.02062 -0.09904 0.00000
4566.04 0.74463 0.74463 40.05362 39.63 0.00 39.63 -0.02062 -0.08982 0.00000
4569.85 0.39218 0.39218 -34.43126 35.30 0.00 35.30 0.22938 1.10950 0.00000
4571.05 0.39221 0.39221 -29.45958 27.39 0.00 27.39 0.22938 1.00596 0.00000
4574.04 0.39322 0.39322 -25.02607 20.96 0.00 20.96 0.22938 0.91459 0.00000
4576.05 0.39417 0.39417 -21.11078 15.78 0.00 15.78 0.22938 0.83398 0.00000
4579.85 0.65910 0.65910 37.90228 14.91 0.00 14.91 0.04188 -0.13053 0.00000
4581.04 0.65962 0.65962 36.95396 17.56 0.00 17.56 0.04188 -0.11025 0.00000
4584.03 0.65814 0.65814 36.02378 19.79 0.00 19.79 0.04188 -0.09235 0.00000
4586.04 0.65666 0.65666 35.19448 21.65 0.00 21.65 0.04188 -0.07656 0.00000
4589.85 0.47892 0.47892 -2.59381 21.02 0.00 21.02 0.16688 0.53296 0.00000
4591.05 0.47749 0.47749 -0.59534 18.36 0.00 18.36 0.16688 0.48989 0.00000
4594.04 0.47577 0.47577 1.14621 16.23 0.00 16.23 0.16688 0.45189 0.00000
4596.05 0.47412 0.47412 2.67653 14.55 0.00 14.55 0.16688 0.41836 0.00000
4599.85 0.82664 0.82664 78.19402 17.59 0.00 17.59 -0.08312 -0.80240 0.00000
4601.04 0.82667 0.82667 74.13359 24.48 0.00 24.48 -0.08312 -0.71778 0.00000
4604.04 0.82592 0.82592 70.51402 30.11 0.00 30.11 -0.08312 -0.64312 0.00000
4606.05 0.82519 0.82519 67.31628 34.68 0.00 34.68 -0.08312 -0.57724 0.00000
4609.85 0.82638 0.82638 64.58312 38.36 0.00 38.36 -0.08312 -0.51911 0.00000
4611.05 0.82754 0.82754 62.17706 41.30 0.00 41.30 -0.08312 -0.46781 0.00000
4614.04 0.82708 0.82708 59.98249 43.63 0.00 43.63 -0.08312 -0.42256 0.00000
4616.04 0.82664 0.82664 58.04440 45.44 0.00 45.44 -0.08312 -0.38262 0.00000
4619.85 0.82622 0.82622 56.33302 46.82 0.00 46.82 -0.08312 -0.34739 0.00000
4621.05 0.82584 0.82584 54.82249 47.85 0.00 47.85 -0.08312 -0.31630 0.00000
4624.04 0.82481 0.82481 53.45625 48.59 0.00 48.59 -0.08312 -0.28887 0.00000
4626.04 0.82377 0.82377 52.24490 49.09 0.00 49.09 -0.08312 -0.26466 0.00000
4629.85 0.99988 0.99988 88.26129 51.58 0.00 51.58 -0.20812 -0.83889 0.00000
4631.04 0.99975 0.99975 84.69262 55.69 0.00 55.69 -0.20812 -0.76468 0.00000
4634.04 1.00079 1.00079 81.59999 58.92 0.00 58.92 -0.20812 -0.69921 0.00000
4636.04 1.00183 1.00183 78.87651 61.43 0.00 61.43 -0.20812 -0.64143 0.00000
4639.85 0.73795 0.73795 20.88130 60.07 0.00 60.07 -0.02062 0.30293 0.00000
4641.04 0.73842 0.73842 22.73081 55.57 0.00 55.57 -0.02062 0.26486 0.00000
4644.04 0.73751 0.73751 24.29916 51.79 0.00 51.79 -0.02062 0.23128 0.00000
4646.04 0.73667 0.73667 25.68118 48.64 0.00 48.64 -0.02062 0.20164 0.00000
4649.85 0.64721 0.64721 8.34836 44.92 0.00 44.92 0.04188 0.47329 0.00000
4651.04 0.64588 0.64588 10.72069 40.76 0.00 40.76 0.04188 0.42253 0.00000
4654.04 0.64706 0.64706 12.92697 37.35 0.00 37.35 0.04188 0.37775 0.00000
4656.05 0.64821 0.64821 14.87881 34.59 0.00 34.59 0.04188 0.33823 0.00000
4659.85 0.91271 0.91271 72.13068 35.64 0.00 35.64 -0.14562 -0.59001 0.00000
4661.05 0.91285 0.91285 69.62783 39.79 0.00 39.79 -0.14562 -0.53773 0.00000
4664.04 0.91304 0.91304 67.42266 43.17 0.00 43.17 -0.14562 -0.49160 0.00000
4666.05 0.91322 0.91322 65.47769 45.91 0.00 45.91 -0.14562 -0.45090 0.00000
4669.85 0.65010 0.65010 8.24154 44.84 0.00 44.84 0.04188 0.47840 0.00000
4671.04 0.65133 0.65133 10.76587 40.69 0.00 40.69 0.04188 0.42704 0.00000
4674.04 0.64977 0.64977 12.86581 37.29 0.00 37.29 0.04188 0.38173 0.00000
4676.04 0.64822 0.64822 14.71078 34.52 0.00 34.52 0.04188 0.34175 0.00000
4679.85 0.91154 0.91154 71.92598 35.56 0.00 35.56 -0.14562 -0.58692 0.00000
4681.04 0.91056 0.91056 69.38697 39.69 0.00 39.69 -0.14562 -0.53500 0.00000
4684.03 0.90975 0.90975 67.14894 43.05 0.00 43.05 -0.14562 -0.48919 0.00000
4686.05 0.90896 0.90896 65.17104 45.77 0.00 45.77 -0.14562 -0.44877 0.00000
4689.85 0.64447 0.64447 7.88154 44.68 0.00 44.68 0.04188 0.48028 0.00000
4691.05 0.64437 0.64437 10.35227 40.50 0.00 40.50 0.04188 0.42870 0.00000
4694.04 0.64387 0.64387 12.51239 37.08 0.00 37.08 0.04188 0.38319 0.00000
4696.05 0.64340 0.64340 14.41738 34.30 0.00 34.30 0.04188 0.34304 0.00000
4699.85 0.81941 0.81941 53.15469 34.24 0.00 34.24 -0.08312 -0.28798 0.00000
4701.04 0.81916 0.81916 51.98614 36.40 0.00 36.40 -0.08312 -0.26388 0.00000
4704.03 0.81914 0.81914 50.96430 38.17 0.00 38.17 -0.08312 -0.24262 0.00000
4706.04 0.81914 0.81914 50.06353 39.62 0.00 39.62 -0.08312 -0.22385 0.00000
4709.85 0.90872 0.90872 67.86285 41.90 0.00 41.90 -0.14562 -0.50509 0.00000
4711.04 0.91017 0.91017 65.90248 44.84 0.00 44.84 -0.14562 -0.46280 0.00000
4714.03 0.91016 0.91016 64.11088 47.21 0.00 47.21 -0.14562 -0.42549 0.00000
4716.04 0.91017 0.91017 62.53090 49.11 0.00 49.11 -0.14562 -0.39256 0.00000
4719.85 0.73443 0.73443 24.11292 48.43 0.00 48.43 -0.02062 0.23208 0.00000
4721.04 0.73491 0.73491 25.56315 45.65 0.00 45.65 -0.02062 0.20235 0.00000
4724.04 0.73403 0.73403 26.77988 43.36 0.00 43.36 -0.02062 0.17612 0.00000
4726.05 0.73316 0.73316 27.84890 41.47 0.00 41.47 -0.02062 0.15297 0.00000
4729.85 0.73361 0.73361 28.85091 39.93 0.00 39.93 -0.02062 0.13255 0.00000
4731.04 0.73403 0.73403 29.73610 38.68 0.00 38.68 -0.02062 0.11453 0.00000
4734.04 0.73438 0.73438 30.51616 37.67 0.00 37.67 -0.02062 0.09863 0.00000
4736.05 0.73470 0.73470 31.20479 36.87 0.00 36.87 -0.02062 0.08460 0.00000
4739.85 0.82353 0.82353 50.35727 37.33 0.00 37.33 -0.08312 -0.22558 0.00000
4741.04 0.82420 0.82420 49.58472 38.82 0.00 38.82 -0.08312 -0.20882 0.00000
4744.04 0.82507 0.82507 48.91666 40.04 0.00 40.04 -0.08312 -0.19403 0.00000
4746.04 0.82591 0.82591 48.33089 41.05 0.00 41.05 -0.08312 -0.18098 0.00000
4749.85 0.64845 0.64845 10.67168 39.69 0.00 39.69 0.04188 0.42612 0.00000
4751.04 0.64723 0.64723 12.78311 36.40 0.00 36.40 0.04188 0.38091 0.00000
4754.04 0.64746 0.64746 14.70860 33.74 0.00 33.74 0.04188 0.34103 0.00000
4756.04 0.64766 0.64766 16.40770 31.60 0.00 31.60 0.04188 0.30583 0.00000
4759.85 0.64681 0.64681 17.85753 29.90 0.00 29.90 0.04188 0.27478 0.00000
4761.04 0.64601 0.64601 19.13449 28.56 0.00 28.56 0.04188 0.24738 0.00000
4764.04 0.64610 0.64610 20.29908 27.52 0.00 27.52 0.04188 0.22320 0.00000
4766.06 0.64617 0.64617 21.32629 26.73 0.00 26.73 0.04188 0.20187 0.00000
4769.85 0.55896 0.55896 3.74971 25.06 0.00 25.06 0.10438 0.48084 0.00000
4771.04 0.55985 0.55985 5.91843 22.68 0.00 22.68 0.10438 0.43655 0.00000
4774.04 0.55867 0.55867 7.73765 20.81 0.00 20.81 0.10438 0.39747 0.00000
4776.05 0.55750 0.55750 9.33657 19.37 0.00 19.37 0.10438 0.36299 0.00000
4779.85 0.82301 0.82301 66.42400 21.55 0.00 21.55 -0.08312 -0.56082 0.00000
4781.04 0.82414 0.82414 63.78068 26.67 0.00 26.67 -0.08312 -0.50462 0.00000
4784.03 0.82526 0.82526 61.45410 30.90 0.00 30.90 -0.08312 -0.45503 0.00000
4786.04 0.82635 0.82635 59.40625 34.37 0.00 34.37 -0.08312 -0.41128 0.00000
4789.85 0.82734 0.82734 57.60046 37.21 0.00 37.21 -0.08312 -0.37267 0.00000
4791.05 0.82831 0.82831 56.01182 39.52 0.00 39.52 -0.08312 -0.33861 0.00000
4794.04 0.82926 0.82926 54.61488 41.38 0.00 41.38 -0.08312 -0.30855 0.00000
4796.04 0.83019 0.83019 53.38669 42.86 0.00 42.86 -0.08312 -0.28203 0.00000
4799.85 0.47790 0.47790 -21.82322 39.68 0.00 39.68 0.16688 0.93255 0.00000
4801.04 0.47810 0.47810 -17.48977 32.70 0.00 32.70 0.16688 0.84247 0.00000
4804.04 0.47654 0.47654 -13.74932 27.01 0.00 27.01 0.16688 0.76299 0.00000
4806.04 0.47500 0.47500 -10.45712 22.41 0.00 22.41 0.16688 0.69286 0.00000
4809.85 0.38815 0.38815 -25.94979 17.63 0.00 17.63 0.22938 0.92877 0.00000
4811.04 0.38941 0.38941 -21.93978 12.74 0.00 12.74 0.22938 0.84649 0.00000
4814.03 0.38829 0.38829 -18.50846 8.86 0.00 8.86 0.22938 0.77389 0.00000
4816.04 0.38724 0.38724 -15.48395 5.82 0.00 5.82 0.22938 0.70983 0.00000
4819.85 0.47438 0.47438 5.70580 4.56 0.00 4.56 0.16688 0.35551 0.00000
4821.05 0.47340 0.47340 6.72425 4.75 0.00 4.75 0.16688 0.33332 0.00000
4824.03 0.47399 0.47399 7.69249 5.04 0.00 5.04 0.16688 0.31373 0.00000
4826.04 0.47455 0.47455 8.54825 5.41 0.00 5.41 0.16688 0.29646 0.00000
4829.85 0.65138 0.65138 46.35639 8.00 0.00 8.00 0.04188 -0.31438 0.00000
4831.04 0.65194 0.65194 44.37147 12.40 0.00 12.40 0.04188 -0.27246 0.00000
4834.04 0.65272 0.65272 42.63366 16.05 0.00 16.05 0.04188 -0.23548 0.00000
4836.05 0.65348 0.65348 41.10378 19.09 0.00 19.09 0.04188 -0.20285 0.00000
4839.85 0.74065 0.74065 58.20021 22.69 0.00 22.69 -0.02062 -0.47186 0.00000
4841.04 0.73976 0.73976 55.60960 26.71 0.00 26.71 -0.02062 -0.41877 0.00000
4844.03 0.73797 0.73797 53.27512 29.97 0.00 29.97 -0.02062 -0.37193 0.00000
4846.04 0.73620 0.73620 51.20634 32.59 0.00 32.59 -0.02062 -0.33060 0.00000
4849.85 0.64743 0.64743 30.90092 33.59 0.00 33.59 0.04188 0.00366 0.00000
4851.04 0.64682 0.64682 30.65592 33.26 0.00 33.26 0.04188 0.00816 0.00000
4854.03 0.64683 0.64683 30.46604 32.94 0.00 32.94 0.04188 0.01212 0.00000
4856.04 0.64685 0.64685 30.29857 32.64 0.00 32.64 0.04188 0.01562 0.00000
4859.85 0.91197 0.91197 85.75866 35.63 0.00 35.63 -0.14562 -0.87467 0.00000
4861.04 0.91268 0.91268 81.67597 41.28 0.00 41.28 -0.14562 -0.78890 0.00000
4864.04 0.91375 0.91375 78.09476 45.83 0.00 45.83 -0.14562 -0.71322 0.00000
4866.04 0.91479 0.91479 74.93939 49.44 0.00 49.44 -0.14562 -0.64644 0.00000
4869.85 0.73740 0.73740 35.00810 50.09 0.00 50.09 -0.02062 0.00806 0.00000
4871.04 0.73632 0.73632 35.11831 48.32 0.00 48.32 -0.02062 0.00469 0.00000
4874.04 0.73552 0.73552 35.22305 46.77 0.00 46.77 -0.02062 0.00171 0.00000
4876.04 0.73474 0.73474 35.31144 45.42 0.00 45.42 -0.02062 -0.00092 0.00000
4879.85 0.73626 0.73626 35.49586 44.24 0.00 44.24 -0.02062 -0.00324 0.00000
4881.04 0.73775 0.73775 35.66569 43.22 0.00 43.22 -0.02062 -0.00528 0.00000
4884.03 0.73767 0.73767 35.74832 42.34 0.00 42.34 -0.02062 -0.00709 0.00000
4886.05 0.73760 0.73760 35.82128 41.57 0.00 41.57 -0.02062 -0.00868 0.00000
4889.86 0.56198 0.56198 -1.12916 38.72 0.00 38.72 0.10438 0.58550 0.00000
4891.05 0.56258 0.56258 1.61682 34.19 0.00 34.19 0.10438 0.52890 0.00000
4894.04 0.56243 0.56243 4.00697 30.50 0.00 30.50 0.10438 0.47896 0.00000
4896.06 0.56229 0.56229 6.11528 27.51 0.00 27.51 0.10438 0.43489 0.00000
4899.85 0.91395 0.91395 82.03775 29.46 0.00 29.46 -0.14562 -0.79517 0.00000
4901.04 0.91311 0.91311 78.32970 35.42 0.00 35.42 -0.14562 -0.71876 0.00000
4904.03 0.91363 0.91363 75.11786 40.28 0.00 40.28 -0.14562 -0.65133 0.00000
4906.04 0.91413 0.91413 72.28635 44.21 0.00 44.21 -0.14562 -0.59183 0.00000
4909.85 0.91358 0.91358 69.73992 47.37 0.00 47.37 -0.14562 -0.53934 0.00000
4911.04 0.91307 0.91307 67.49210 49.87 0.00 49.87 -0.14562 -0.49302 0.00000
4914.03 0.91351 0.91351 65.55178 51.83 0.00 51.83 -0.14562 -0.45215 0.00000
4916.04 0.91393 0.91393 63.84071 53.34 0.00 53.34 -0.14562 -0.41609 0.00000
4919.85 0.82475 0.82475 43.73893 53.39 0.00 53.39 -0.08312 -0.08647 0.00000
4921.04 0.82375 0.82375 43.67173 52.25 0.00 52.25 -0.08312 -0.08608 0.00000
4924.04 0.82254 0.82254 43.59696 51.24 0.00 51.24 -0.08312 -0.08573 0.00000
4926.05 0.82137 0.82137 43.52610 50.34 0.00 50.34 -0.08312 -0.08543 0.00000
4929.85 0.55758 0.55758 -12.03107 46.27 0.00 46.27 0.10438 0.80823 0.00000
4931.04 0.55815 0.55815 -8.02897 39.64 0.00 39.64 0.10438 0.72542 0.00000
4934.04 0.55810 0.55810 -4.52442 34.24 0.00 34.24 0.10438 0.65236 0.00000
4936.05 0.55805 0.55805 -1.43245 29.86 0.00 29.86 0.10438 0.58789 0.00000
4939.85 0.73314 0.73314 38.29081 28.52 0.00 28.52 -0.02062 -0.06458 0.00000
4941.04 0.73199 0.73199 37.98725 29.65 0.00 29.65 -0.02062 -0.05941 0.00000
4944.04 0.73177 0.73177 37.75775 30.62 0.00 30.62 -0.02062 -0.05485 0.00000
4946.05 0.73157 0.73157 37.55492 31.45 0.00 31.45 -0.02062 -0.05082 0.00000
4949.85 0.73045 0.73045 37.33070 32.15 0.00 32.15 -0.02062 -0.04727 0.00000
4951.04 0.72934 0.72934 37.12658 32.75 0.00 32.75 -0.02062 -0.04414 0.00000
4954.03 0.72817 0.72817 36.93787 33.25 0.00 33.25 -0.02062 -0.04137 0.00000
4956.05 0.72701 0.72701 36.76488 33.68 0.00 33.68 -0.02062 -0.03893 0.00000
4959.85 0.72688 0.72688 36.65566 34.03 0.00 34.03 -0.02062 -0.03678 0.00000
4961.05 0.72679 0.72679 36.55988 34.34 0.00 34.34 -0.02062 -0.03488 0.00000
4964.04 0.72688 0.72688 36.48369 34.59 0.00 34.59 -0.02062 -0.03320 0.00000
4966.04 0.72695 0.72695 36.41592 34.81 0.00 34.81 -0.02062 -0.03172 0.00000
4969.85 0.90294 0.90294 73.38908 37.17 0.00 37.17 -0.14562 -0.62600 0.00000
4971.05 0.90270 0.90270 70.66480 41.28 0.00 41.28 -0.14562 -0.56949 0.00000
4974.04 0.90307 0.90307 68.28930 44.59 0.00 44.59 -0.14562 -0.51962 0.00000
4976.04 0.90343 0.90343 66.19469 47.26 0.00 47.26 -0.14562 -0.47562 0.00000
4979.86 0.90461 0.90461 64.38759 49.38 0.00 49.38 -0.14562 -0.43680 0.00000
4981.04 0.90578 0.90578 62.79948 51.05 0.00 51.05 -0.14562 -0.40254 0.00000
4984.03 0.90517 0.90517 61.31931 52.35 0.00 52.35 -0.14562 -0.37232 0.00000
4986.05 0.90461 0.90461 60.01226 53.33 0.00 53.33 -0.14562 -0.34565 0.00000
4989.86 1.08234 1.08234 96.00199 56.23 0.00 56.23 -0.27062 -0.91770 0.00000
4991.05 1.08379 1.08379 92.41760 60.70 0.00 60.70 -0.27062 -0.84158 0.00000
4994.03 1.08529 1.08529 89.26525 64.24 0.00 64.24 -0.27062 -0.77441 0.00000
4996.04 1.08678 1.08678 86.49186 67.02 0.00 67.02 -0.27062 -0.71514 0.00000
4999.85 0.90940 0.90940 46.87936 66.98 0.00 66.98 -0.14562 -0.06725 0.00000
