% Controller vpitch
% Log with 2000 values (sample interval=0.01ms)
% Uses separate derivative input (gyro) 0
% data format:
% 1   Time (ms)
% 2   Control reference input (setpoint) (r)
% 3   after pre-filter (r2)
% 4   error after Kp (ep)
% 5   error after Kp and lead/lag, before I (up)
% 6   integrator output (ui)
% 7   Controller output (u) after limiter
% 8   measurement (m)
% 9   measurement after filter (m2)
% 10  Feed forward output (uf)
% 
1.49 4.73885 4.73885 -516.78986 -250.89 0.00 -131.62 3.35437 15.50531 0.00000
4.93 4.55070 4.55070 -457.20386 -278.67 0.00 -146.20 3.35437 14.07578 0.00000
6.51 4.37749 4.37749 -404.97333 -296.60 0.00 -155.60 3.35437 12.81444 0.00000
9.85 4.54494 4.54494 -772.33777 -330.96 0.00 -157.38 5.22937 20.63531 0.00000
11.49 4.70113 4.70113 -677.84229 -377.33 0.00 -157.38 5.22937 18.82284 0.00000
14.94 4.22520 4.22520 -623.92334 -409.51 0.00 -157.38 5.22937 17.22361 0.00000
16.49 3.78447 3.78447 -577.34631 -432.00 0.00 -157.38 5.22937 15.81252 0.00000
19.85 3.42834 3.42834 -849.14746 -465.09 0.00 -157.38 6.60437 21.11891 0.00000
21.49 3.10147 3.10147 -782.87231 -506.37 0.00 -157.38 6.60437 19.41131 0.00000
24.93 2.61373 2.61373 -733.96228 -536.02 0.00 -157.38 6.60437 17.90461 0.00000
26.50 2.16144 2.16144 -691.85913 -556.83 0.00 -157.38 6.60437 16.57517 0.00000
29.85 1.80923 1.80923 -766.81226 -577.13 0.00 -157.38 7.10437 17.78448 0.00000
31.50 1.48331 1.48331 -722.14490 -596.82 0.00 -157.38 7.10437 16.52799 0.00000
34.93 1.33974 1.33974 -675.81995 -608.84 0.00 -157.38 7.10437 15.41933 0.00000
36.49 1.20675 1.20675 -635.24872 -614.33 0.00 -157.38 7.10437 14.44109 0.00000
39.85 1.04056 1.04056 -744.73590 -623.23 0.00 -157.38 7.72937 16.55589 0.00000
41.49 0.88990 0.88990 -702.12360 -635.02 0.00 -157.38 7.72937 15.51747 0.00000
44.93 1.11270 1.11270 -647.44934 -639.70 0.00 -157.38 7.72937 14.60122 0.00000
46.49 1.31934 1.31934 -598.72449 -637.74 0.00 -157.38 7.72937 13.79277 0.00000
49.86 1.38678 1.38678 -632.71747 -635.15 0.00 -157.38 8.04187 14.56839 0.00000
51.49 1.44968 1.44968 -592.84216 -632.52 0.00 -157.38 8.04187 13.80056 0.00000
54.93 0.90400 0.90400 -586.51501 -627.48 0.00 -157.38 8.04187 13.12306 0.00000
56.49 0.39665 0.39665 -582.17395 -622.41 0.00 -157.38 8.04187 12.52527 0.00000
59.85 -0.18864 -0.18864 -627.83215 -620.36 0.00 -157.38 8.22937 12.89119 0.00000
61.49 -0.73384 -0.73384 -627.67554 -621.23 0.00 -157.38 8.22937 12.34274 0.00000
64.93 -0.40653 -0.40653 -588.73621 -619.70 0.00 -157.38 8.22937 11.85881 0.00000
66.51 -0.10352 -0.10352 -553.69611 -613.99 0.00 -157.38 8.22937 11.43181 0.00000
69.85 -0.50729 -0.50729 -326.28635 -593.52 0.00 -157.38 7.22937 6.29034 0.00000
71.49 -0.88262 -0.88262 -349.60501 -563.45 0.00 -157.38 7.22937 6.40081 0.00000
74.93 -1.20605 -1.20605 -369.80795 -539.48 0.00 -157.38 7.22937 6.49829 0.00000
76.51 -1.50773 -1.50773 -388.41724 -520.62 0.00 -157.38 7.22937 6.58429 0.00000
79.85 -1.73092 -1.73092 -145.47894 -490.77 0.00 -157.38 6.10437 1.29989 0.00000
81.49 -1.94071 -1.94071 -182.67984 -452.34 0.00 -157.38 6.10437 1.86512 0.00000
84.93 -1.36614 -1.36614 -179.03998 -420.40 0.00 -157.38 6.10437 2.36386 0.00000
86.50 -0.83573 -0.83573 -174.70312 -391.75 0.00 -157.38 6.10437 2.80392 0.00000
89.85 -0.63387 -0.63387 -69.29874 -360.01 0.00 -157.38 5.60437 0.80985 0.00000
91.49 -0.44805 -0.44805 -87.45419 -326.88 0.00 -157.38 5.60437 1.37391 0.00000
94.97 -0.90019 -0.90019 -133.04663 -301.39 0.00 -157.38 5.60437 1.87161 0.00000
96.49 -1.32199 -1.32199 -174.37170 -284.02 0.00 -149.00 5.60437 2.31076 0.00000
99.85 -1.71365 -1.71365 -297.53549 -278.36 0.00 -146.03 5.97937 4.48500 0.00000
101.49 -2.07993 -2.07993 -323.55542 -282.15 0.00 -148.02 5.97937 4.66081 0.00000
104.94 -1.76730 -1.76730 -315.99509 -286.58 0.00 -150.34 5.97937 4.81593 0.00000
106.49 -1.47661 -1.47661 -308.61191 -289.60 0.00 -151.93 5.97937 4.95280 0.00000
109.85 -1.79164 -1.79164 199.35242 -261.96 0.00 -137.43 3.66687 -5.94481 0.00000
111.49 -2.08657 -2.08657 130.91766 -211.71 0.00 -111.07 3.66687 -4.81403 0.00000
114.93 -2.01009 -2.01009 86.69669 -174.01 0.00 -91.29 3.66687 -3.81627 0.00000
116.50 -1.94156 -1.94156 47.72859 -145.63 0.00 -76.40 3.66687 -2.93591 0.00000
119.85 -2.06776 -2.06776 147.32588 -117.02 0.00 -61.39 3.04187 -5.13705 0.00000
121.50 -2.18738 -2.18738 95.39735 -88.98 0.00 -46.68 3.04187 -4.17483 0.00000
124.93 -1.59285 -1.59285 83.18188 -68.00 0.00 -35.68 3.04187 -3.32580 0.00000
126.50 -1.04357 -1.04357 73.58858 -50.78 0.00 -26.64 3.04187 -2.57667 0.00000
129.85 -0.68887 -0.68887 459.12131 -13.47 0.00 -7.07 1.29188 -10.25390 0.00000
131.49 -0.36240 -0.36240 409.59201 39.21 0.00 20.57 1.29188 -8.89557 0.00000
134.93 -0.61887 -0.61887 339.75253 78.68 0.00 41.28 1.29188 -7.69705 0.00000
136.49 -0.85840 -0.85840 277.49393 105.73 0.00 55.47 1.29188 -6.63953 0.00000
139.85 -0.93559 -0.93559 271.88251 125.61 0.00 65.90 1.10438 -6.59980 0.00000
141.49 -1.00908 -1.00908 224.84885 140.05 0.00 73.47 1.10438 -5.69343 0.00000
144.94 -0.41446 -0.41446 215.00281 149.45 0.00 78.40 1.10438 -4.89369 0.00000
146.49 0.13565 0.13565 207.53665 156.72 0.00 82.22 1.10438 -4.18803 0.00000
149.86 0.66601 0.66601 917.81360 204.48 0.00 107.27 -2.02063 -18.45510 0.00000
151.49 1.15700 1.15700 848.57428 284.33 0.00 149.16 -2.02063 -16.52163 0.00000
154.93 0.88696 0.88696 753.72430 345.13 0.00 157.38 -2.02063 -14.81563 0.00000
156.51 0.63550 0.63550 669.40015 388.24 0.00 157.38 -2.02063 -13.31033 0.00000
159.89 0.48166 0.48166 298.08539 399.48 0.00 157.38 -0.70812 -5.72845 0.00000
161.49 0.33746 0.33746 262.81390 385.47 0.00 157.38 -0.70812 -5.13783 0.00000
164.93 0.68552 0.68552 254.50566 370.55 0.00 157.38 -0.70812 -4.61668 0.00000
166.49 1.00783 1.00783 247.90472 356.51 0.00 157.38 -0.70812 -4.15685 0.00000
169.85 1.46186 1.46186 836.28174 378.35 0.00 157.38 -3.27063 -15.96068 0.00000
171.49 1.88207 1.88207 784.79022 429.19 0.00 157.38 -3.27063 -14.46773 0.00000
174.93 1.71384 1.71384 713.48462 466.83 0.00 157.38 -3.27063 -13.15042 0.00000
176.49 1.55722 1.55722 650.17468 492.13 0.00 157.38 -3.27063 -11.98809 0.00000
179.85 1.75941 1.75941 567.76959 505.87 0.00 157.38 -3.08313 -10.06912 0.00000
181.49 1.94411 1.94411 537.18488 511.36 0.00 157.38 -3.08313 -9.24724 0.00000
184.93 2.49254 2.49254 528.70007 513.90 0.00 157.38 -3.08313 -8.52205 0.00000
186.49 3.00175 3.00175 522.42853 515.27 0.00 157.38 -3.08313 -7.88217 0.00000
189.85 3.45085 3.45085 917.11981 539.33 0.00 157.38 -4.83313 -15.65581 0.00000
191.49 3.86779 3.86779 876.01624 581.36 0.00 157.38 -4.83313 -14.38255 0.00000
194.93 3.49290 3.49290 804.09558 611.79 0.00 157.38 -4.83313 -13.25909 0.00000
196.52 3.14581 3.14581 739.85315 630.64 0.00 157.38 -4.83313 -12.26780 0.00000
199.85 2.83463 2.83463 182.63818 610.71 0.00 157.38 -2.64563 -0.97034 0.00000
201.49 2.54497 2.54497 178.19522 560.09 0.00 157.38 -2.64563 -1.16743 0.00000
204.94 3.02900 3.02900 209.77606 517.01 0.00 157.38 -2.64563 -1.34133 0.00000
206.53 3.47844 3.47844 238.71446 482.57 0.00 157.38 -2.64563 -1.49478 0.00000
209.89 4.03409 4.03409 786.47278 486.10 0.00 157.38 -4.89563 -12.35076 0.00000
211.49 4.55076 4.55076 769.17297 520.42 0.00 157.38 -4.89563 -11.47368 0.00000
214.93 4.12560 4.12560 711.61835 546.30 0.00 157.38 -4.89563 -10.69979 0.00000
216.49 3.73232 3.73232 659.96448 562.71 0.00 157.38 -4.89563 -10.01694 0.00000
219.85 3.28442 3.28442 52.07419 538.40 0.00 157.38 -2.45813 2.19954 0.00000
221.49 2.86941 2.86941 58.45592 481.56 0.00 157.38 -2.45813 1.65158 0.00000
224.93 3.38431 3.38431 106.37892 434.60 0.00 157.38 -2.45813 1.16809 0.00000
226.51 3.86283 3.86283 149.82532 398.54 0.00 157.38 -2.45813 0.74147 0.00000
229.85 3.77264 3.77264 420.85815 385.22 0.00 157.38 -3.58313 -4.99524 0.00000
231.49 3.68854 3.68854 408.84732 388.71 0.00 157.38 -3.58313 -4.82911 0.00000
234.93 3.38837 3.38837 387.40302 389.82 0.00 157.38 -3.58313 -4.68252 0.00000
236.52 3.10924 3.10924 367.79599 388.38 0.00 157.38 -3.58313 -4.55318 0.00000
239.85 3.44756 3.44756 -78.85446 359.68 0.00 157.38 -1.58312 5.09036 0.00000
241.49 3.76206 3.76206 -26.07289 311.20 0.00 157.38 -1.58312 4.30524 0.00000
244.93 4.19146 4.19146 27.79031 274.69 0.00 144.10 -1.58312 3.61249 0.00000
246.53 4.59087 4.59087 76.30193 248.49 0.00 130.36 -1.58312 3.00124 0.00000
249.86 4.97700 4.97700 192.19514 235.05 0.00 123.31 -1.89562 0.97294 0.00000
251.49 5.33687 5.33687 225.66765 231.98 0.00 121.70 -1.89562 0.63546 0.00000
254.93 4.73622 4.73622 211.12967 230.38 0.00 120.86 -1.89562 0.33769 0.00000
256.49 4.18040 4.18040 197.06181 227.29 0.00 119.24 -1.89562 0.07494 0.00000
259.85 4.04943 4.04943 -369.86133 190.38 0.00 99.88 0.60438 11.75488 0.00000
261.49 3.92803 3.92803 -312.72119 127.83 0.00 67.06 0.60438 10.44305 0.00000
264.93 3.54482 3.54482 -275.55548 78.19 0.00 41.02 0.60438 9.28556 0.00000
266.49 3.19083 3.19083 -243.52382 38.46 0.00 20.18 0.60438 8.26425 0.00000
269.85 3.55877 3.55877 -196.90137 8.03 0.00 4.21 0.66688 7.66088 0.00000
271.49 3.90092 3.90092 -140.98251 -12.79 0.00 -6.71 0.66688 6.83805 0.00000
274.93 4.18748 4.18748 -92.37822 -25.02 0.00 -13.12 0.66688 6.11203 0.00000
276.48 4.45415 4.45415 -48.82924 -30.38 0.00 -15.94 0.66688 5.47142 0.00000
279.85 4.59837 4.59837 -372.12805 -51.57 0.00 -27.05 2.22937 12.35103 0.00000
281.49 4.73386 4.73386 -308.46671 -85.54 0.00 -44.87 2.22937 11.16025 0.00000
284.93 4.62201 4.62201 -263.40225 -109.11 0.00 -57.24 2.22937 10.10956 0.00000
286.51 4.52165 4.52165 -223.71964 -124.93 0.00 -65.54 2.22937 9.18247 0.00000
289.85 4.63548 4.63548 -407.69714 -147.37 0.00 -77.31 3.22937 13.12917 0.00000
291.49 4.74263 4.74263 -346.64905 -174.41 0.00 -91.50 3.22937 11.96449 0.00000
294.94 4.10708 4.10708 -327.82773 -193.57 0.00 -101.55 3.22937 10.93682 0.00000
296.49 3.51838 3.51838 -312.56076 -208.46 0.00 -109.36 3.22937 10.03006 0.00000
299.85 3.01303 3.01303 -512.82532 -232.49 0.00 -121.97 4.16687 13.69689 0.00000
301.49 2.54481 2.54481 -481.48325 -263.63 0.00 -138.30 4.16687 12.57571 0.00000
304.93 2.66018 2.66018 -428.45984 -286.14 0.00 -150.11 4.16687 11.58643 0.00000
306.49 2.76906 2.76906 -381.33490 -300.11 0.00 -157.38 4.16687 10.71354 0.00000
309.84 2.87526 2.87526 -439.32687 -313.08 0.00 -157.38 4.60437 12.02790 0.00000
311.49 2.97417 2.97417 -392.65768 -325.18 0.00 -157.38 4.60437 11.15454 0.00000
314.93 2.74552 2.74552 -366.64389 -331.59 0.00 -157.38 4.60437 10.38393 0.00000
316.50 2.53459 2.53459 -344.13089 -334.39 0.00 -157.38 4.60437 9.70398 0.00000
319.85 1.86086 1.86086 -547.78967 -347.52 0.00 -157.38 5.47937 13.27314 0.00000
321.49 1.23520 1.23520 -533.80908 -370.26 0.00 -157.38 5.47937 12.35623 0.00000
324.93 1.47252 1.47252 -483.58401 -386.54 0.00 -157.38 5.47937 11.54718 0.00000
326.49 1.69258 1.69258 -438.75540 -395.32 0.00 -157.38 5.47937 10.83332 0.00000
329.85 1.39465 1.39465 -394.23395 -397.81 0.00 -157.38 5.35437 9.60785 0.00000
331.49 1.11898 1.11898 -383.44611 -396.76 0.00 -157.38 5.35437 9.10744 0.00000
334.93 0.62193 0.62193 -386.11057 -395.35 0.00 -157.38 5.35437 8.66590 0.00000
336.50 0.16088 0.16088 -389.54068 -394.46 0.00 -157.38 5.35437 8.27631 0.00000
339.85 -0.33489 -0.33489 -596.95483 -406.09 0.00 -157.38 6.22937 12.10167 0.00000
341.49 -0.79659 -0.79659 -585.95483 -427.89 0.00 -157.38 6.22937 11.41080 0.00000
344.93 -0.51523 -0.51523 -543.18945 -443.97 0.00 -157.38 6.22937 10.80122 0.00000
346.50 -0.25552 -0.25552 -504.90573 -453.39 0.00 -157.38 6.22937 10.26335 0.00000
349.86 -0.65695 -0.65695 -101.15891 -435.70 0.00 -157.38 4.47937 1.45053 0.00000
351.49 -1.02746 -1.02746 -136.04718 -398.40 0.00 -157.38 4.47937 1.80686 0.00000
354.93 -1.20789 -1.20789 -159.79980 -368.93 0.00 -157.38 4.47937 2.12127 0.00000
356.49 -1.37672 -1.37672 -181.21994 -345.59 0.00 -157.38 4.47937 2.39869 0.00000
359.85 -1.13013 -1.13013 -238.30948 -329.61 0.00 -157.38 4.72937 3.83465 0.00000
361.49 -0.90294 -0.90294 -232.45706 -318.52 0.00 -157.38 4.72937 3.93991 0.00000
364.93 -0.39740 -0.39740 -212.64890 -307.23 0.00 -157.38 4.72937 4.03279 0.00000
366.51 0.07001 0.07001 -194.14709 -295.02 0.00 -154.77 4.72937 4.11474 0.00000
369.85 -0.13229 -0.13229 150.02499 -262.90 0.00 -137.92 3.16687 -3.25781 0.00000
371.50 -0.32108 -0.32108 104.68254 -216.99 0.00 -113.84 3.16687 -2.50196 0.00000
374.93 -0.61684 -0.61684 58.47382 -181.87 0.00 -95.41 3.16687 -1.83504 0.00000
376.51 -0.89284 -0.89284 16.97951 -156.03 0.00 -81.86 3.16687 -1.24658 0.00000
379.85 -1.22890 -1.22890 -181.30971 -147.34 0.00 -77.30 3.85437 2.54838 0.00000
381.50 -1.54223 -1.54223 -203.72433 -152.66 0.00 -80.09 3.85437 2.70203 0.00000
384.94 -0.96787 -0.96787 -182.66254 -157.42 0.00 -82.59 3.85437 2.83759 0.00000
386.51 -0.43684 -0.43684 -162.91479 -159.23 0.00 -83.54 3.85437 2.95721 0.00000
389.86 0.08534 0.08534 -463.56015 -177.35 0.00 -93.04 0.29188 9.74284 0.00000
391.50 0.56897 0.56897 -386.97556 -206.52 0.00 -108.34 0.29188 8.63096 0.00000
394.93 0.36885 0.36885 -349.49005 -225.54 0.00 -118.32 0.29188 7.64989 0.00000
396.53 0.18225 0.18225 -316.89557 -238.21 0.00 -124.97 0.29188 6.78424 0.00000
399.85 -0.08783 -0.08783 -421.84375 -253.64 0.00 -133.06 0.85438 8.70058 0.00000
401.49 -0.33927 -0.33927 -389.60504 -271.53 0.00 -142.45 0.85438 7.77750 0.00000
404.93 0.09068 0.09068 -329.87183 -281.91 0.00 -147.89 0.85438 6.96301 0.00000
406.49 0.48864 0.48864 -276.27383 -284.40 0.00 -149.20 0.85438 6.24435 0.00000
409.86 0.18349 0.18349 239.81035 -253.08 0.00 -132.77 -1.33312 -4.81256 0.00000
411.50 -0.10060 -0.10060 206.52571 -197.05 0.00 -103.38 -1.33312 -4.40321 0.00000
414.93 -0.31822 -0.31822 178.74252 -151.21 0.00 -79.33 -1.33312 -4.04203 0.00000
416.49 -0.52164 -0.52164 153.68111 -113.87 0.00 -59.74 -1.33312 -3.72333 0.00000
419.86 -0.04109 -0.04109 206.13249 -79.30 0.00 -41.60 -1.52062 -4.33551 0.00000
421.49 0.40365 0.40365 211.58391 -45.40 0.00 -23.82 -1.52062 -4.00435 0.00000
424.93 0.93677 0.93677 223.14803 -14.49 0.00 -7.60 -1.52062 -3.71214 0.00000
426.49 1.43082 1.43082 234.48651 14.14 0.00 7.42 -1.52062 -3.45432 0.00000
429.85 1.64401 1.64401 891.32922 78.70 0.00 41.29 -4.39563 -16.92535 0.00000
431.49 1.84013 1.84013 829.98657 170.69 0.00 89.55 -4.39563 -15.45126 0.00000
434.92 1.58479 1.58479 755.29858 243.86 0.00 127.93 -4.39563 -14.15059 0.00000
436.49 1.34768 1.34768 688.82996 300.12 0.00 157.38 -4.39563 -13.00295 0.00000
439.85 1.71303 1.71303 328.99612 324.69 0.00 157.38 -2.95813 -5.14105 0.00000
441.49 2.05177 2.05177 332.92850 325.42 0.00 157.38 -2.95813 -4.88424 0.00000
444.93 2.53894 2.53894 345.43552 327.04 0.00 157.38 -2.95813 -4.65763 0.00000
446.48 2.99148 2.99148 357.56039 329.92 0.00 157.38 -2.95813 -4.45769 0.00000
449.85 3.05492 3.05492 852.43127 362.28 0.00 157.38 -5.14563 -14.70406 0.00000
451.49 3.11405 3.11405 801.29236 416.94 0.00 157.38 -5.14563 -13.57954 0.00000
454.93 2.78853 2.78853 738.04041 458.44 0.00 157.38 -5.14563 -12.58731 0.00000
456.50 2.48705 2.48705 681.54584 488.01 0.00 157.38 -5.14563 -11.71182 0.00000
459.86 3.04984 3.04984 714.36194 512.71 0.00 157.38 -5.33313 -11.83270 0.00000
461.49 3.57244 3.57244 702.74341 535.75 0.00 157.38 -5.33313 -11.06805 0.00000
464.93 4.10862 4.10862 696.09473 555.00 0.00 157.38 -5.33313 -10.39335 0.00000
466.49 4.60744 4.60744 691.46265 571.33 0.00 157.38 -5.33313 -9.79803 0.00000
469.85 4.80104 4.80104 1190.13013 614.80 0.00 157.38 -7.58313 -19.99333 0.00000
471.49 4.97943 4.97943 1128.61157 678.86 0.00 157.38 -7.58313 -18.53331 0.00000
474.94 5.18174 5.18174 1076.48584 728.71 0.00 157.38 -7.58313 -17.24504 0.00000
476.49 5.36724 5.36724 1030.82800 766.94 0.00 157.38 -7.58313 -16.10834 0.00000
479.86 5.50261 5.50261 446.00693 763.58 0.00 157.38 -5.20813 -3.78920 0.00000
481.49 5.62855 5.62855 460.06458 727.05 0.00 157.38 -5.20813 -3.95613 0.00000
484.93 6.05548 6.05548 487.62735 697.26 0.00 157.38 -5.20813 -4.10342 0.00000
486.50 6.45368 6.45368 512.97876 674.09 0.00 157.38 -5.20813 -4.23338 0.00000
489.85 6.23298 6.23298 793.77191 671.65 0.00 157.38 -6.45813 -10.30394 0.00000
491.49 6.02971 6.02971 762.29736 684.17 0.00 157.38 -6.45813 -9.85148 0.00000
494.93 5.67496 5.67496 726.10675 691.23 0.00 157.38 -6.45813 -9.45226 0.00000
496.50 5.34743 5.34743 693.47705 693.41 0.00 157.38 -6.45813 -9.10001 0.00000
499.85 5.61690 5.61690 562.84534 685.74 0.00 157.38 -5.89563 -6.10905 0.00000
501.49 5.86787 5.86787 573.68689 671.92 0.00 157.38 -5.89563 -6.08394 0.00000
504.93 5.84514 5.84514 571.53241 660.23 0.00 157.38 -5.89563 -6.06178 0.00000
506.50 5.82461 5.82461 569.60840 649.68 0.00 157.38 -5.89563 -6.04223 0.00000
509.85 6.00097 6.00097 505.77475 636.51 0.00 157.38 -5.58313 -4.53601 0.00000
511.49 6.16573 6.16573 519.59656 621.94 0.00 157.38 -5.58313 -4.65920 0.00000
514.92 5.99187 5.99187 516.46863 609.72 0.00 157.38 -5.58313 -4.76789 0.00000
516.51 5.83211 5.83211 513.40338 598.57 0.00 157.38 -5.58313 -4.86380 0.00000
519.85 5.98803 5.98803 296.24368 575.77 0.00 157.38 -4.58313 -0.18372 0.00000
521.49 6.13369 6.13369 328.07932 544.76 0.00 157.38 -4.58313 -0.70129 0.00000
524.93 6.21742 6.21742 354.01923 520.79 0.00 157.38 -4.58313 -1.15798 0.00000
526.49 6.29523 6.29523 377.09619 502.53 0.00 157.38 -4.58313 -1.56094 0.00000
529.86 6.43231 6.43231 172.03629 475.71 0.00 157.38 -3.58313 2.84822 0.00000
531.49 6.55906 6.55906 214.43866 442.48 0.00 157.38 -3.58313 2.09159 0.00000
534.93 6.47835 6.47835 242.61003 417.31 0.00 157.38 -3.58313 1.42398 0.00000
536.51 6.40537 6.40537 267.38205 398.21 0.00 157.38 -3.58313 0.83491 0.00000
539.85 6.64984 6.64984 132.53609 374.89 0.00 157.38 -2.83313 3.88867 0.00000
541.49 6.87864 6.87864 181.47693 349.26 0.00 157.38 -2.83313 3.09787 0.00000
544.93 6.29375 6.29375 186.89511 329.84 0.00 157.38 -2.83313 2.40011 0.00000
546.52 5.75305 5.75305 190.49382 313.23 0.00 157.38 -2.83313 1.78443 0.00000
549.85 5.77769 5.77769 -182.48309 276.85 0.00 145.24 -1.08312 9.57943 0.00000
551.49 5.80208 5.80208 -121.10069 226.42 0.00 118.78 -1.08312 8.32501 0.00000
554.94 5.63119 5.63119 -76.17480 188.18 0.00 98.72 -1.08312 7.21817 0.00000
556.51 5.47448 5.47448 -36.81917 159.39 0.00 83.62 -1.08312 6.24155 0.00000
559.85 5.51704 5.51704 -265.00186 122.89 0.00 64.47 0.10438 11.03791 0.00000
561.49 5.55848 5.55848 -201.27017 81.00 0.00 42.50 0.10438 9.75161 0.00000
564.93 5.75878 5.75878 -137.17735 51.56 0.00 27.05 0.10438 8.61664 0.00000
566.49 5.94647 5.94647 -80.09871 32.72 0.00 17.16 0.10438 7.61520 0.00000
569.85 5.93541 5.93541 -324.09824 5.09 0.00 2.67 1.35438 12.68745 0.00000
571.49 5.92711 5.92711 -260.49786 -29.90 0.00 -15.68 1.35438 11.35415 0.00000
574.93 5.95513 5.95513 -202.68343 -53.62 0.00 -28.13 1.35438 10.17770 0.00000
576.51 5.98312 5.98312 -151.51428 -68.15 0.00 -35.75 1.35438 9.13966 0.00000
579.85 5.76296 5.76296 -332.52930 -88.61 0.00 -46.48 2.29187 12.69066 0.00000
581.49 5.56096 5.56096 -283.50281 -114.42 0.00 -60.03 2.29187 11.46727 0.00000
584.93 5.18474 5.18474 -249.74730 -132.33 0.00 -69.42 2.29187 10.38781 0.00000
586.49 4.83691 4.83691 -220.72490 -144.43 0.00 -75.77 2.29187 9.43534 0.00000
589.85 4.57866 4.57866 -664.48682 -179.51 0.00 -94.17 4.35437 18.42214 0.00000
591.50 4.34130 4.34130 -596.43848 -232.56 0.00 -122.01 4.35437 16.76711 0.00000
594.93 3.61561 3.61561 -561.17627 -273.30 0.00 -143.38 4.35437 15.30678 0.00000
596.50 2.94260 2.94260 -531.63171 -305.43 0.00 -157.38 4.35437 14.01826 0.00000
599.85 3.21068 3.21068 -592.83838 -335.64 0.00 -157.38 4.91687 15.56148 0.00000
601.49 3.45989 3.45989 -520.76538 -361.66 0.00 -157.38 4.91687 14.30917 0.00000
604.93 3.18661 3.18661 -480.84439 -378.03 0.00 -157.38 4.91687 13.20420 0.00000
606.50 2.93421 2.93421 -446.16046 -388.09 0.00 -157.38 4.91687 12.22922 0.00000
609.86 2.96121 2.96121 -560.80627 -401.66 0.00 -157.38 5.60437 14.64468 0.00000
611.49 2.98729 2.98729 -508.50320 -417.31 0.00 -157.38 5.60437 13.58111 0.00000
614.93 3.21168 3.21168 -452.68726 -424.75 0.00 -157.38 5.60437 12.64267 0.00000
616.50 3.42014 3.42014 -402.93558 -425.11 0.00 -157.38 5.60437 11.81463 0.00000
619.85 3.31978 3.31978 -515.62378 -429.13 0.00 -157.38 6.22937 14.06195 0.00000
621.49 3.22767 3.22767 -475.81430 -436.97 0.00 -157.38 6.22937 13.14046 0.00000
624.92 2.56783 2.56783 -468.45923 -441.10 0.00 -157.38 6.22937 12.32739 0.00000
626.50 1.95531 1.95531 -463.42401 -444.03 0.00 -157.38 6.22937 11.60997 0.00000
629.85 1.78214 1.78214 -612.88092 -455.10 0.00 -157.38 6.97937 14.55049 0.00000
631.49 1.62459 1.62459 -577.68842 -471.59 0.00 -157.38 6.97937 13.65976 0.00000
634.93 1.06147 1.06147 -566.99323 -483.44 0.00 -157.38 6.97937 12.87383 0.00000
636.51 0.53782 0.53782 -558.84192 -492.79 0.00 -157.38 6.97937 12.18036 0.00000
639.59 -0.02438 -0.02438 -556.45703 -500.42 0.00 -157.38 6.97937 11.56847 0.00000
641.86 -0.54018 -0.54018 -512.41809 -504.43 0.00 -157.38 6.79187 10.13520 0.00000
644.96 -1.01750 -1.01750 -516.44958 -505.60 0.00 -157.38 6.79187 9.74187 0.00000
646.51 -1.46253 -1.46253 -521.15204 -507.16 0.00 -157.38 6.79187 9.39481 0.00000
649.48 -1.52243 -1.52243 -509.32837 -508.11 0.00 -157.38 6.79187 9.08858 0.00000
651.89 -1.54538 -1.54538 -311.63672 -496.62 0.00 -157.38 5.97937 4.94705 0.00000
654.93 -1.45537 -1.45537 -313.14597 -474.95 0.00 -157.38 5.97937 5.06850 0.00000
656.50 -1.37045 -1.37045 -314.21320 -455.97 0.00 -157.38 5.97937 5.17566 0.00000
659.48 -1.59083 -1.59083 -329.33002 -440.19 0.00 -157.38 5.97937 5.27021 0.00000
661.88 -1.71120 -1.71120 -96.11243 -413.43 0.00 -157.38 4.91687 0.29114 0.00000
664.93 -1.96650 -1.96650 -134.48831 -378.35 0.00 -157.38 4.91687 0.83534 0.00000
666.51 -2.20607 -2.20607 -169.03656 -351.69 0.00 -157.38 4.91687 1.31552 0.00000
669.49 -1.81422 -1.81422 -170.56458 -330.30 0.00 -157.38 4.91687 1.73921 0.00000
671.87 -1.44511 -1.44511 -127.90924 -308.99 0.00 -157.38 4.72937 1.21967 0.00000
674.95 -1.56845 -1.56845 -153.64911 -289.20 0.00 -151.72 4.72937 1.63257 0.00000
676.52 -1.68391 -1.68391 -176.67892 -274.61 0.00 -144.07 4.72937 1.99690 0.00000
679.49 -2.03680 -2.03680 -209.04767 -264.99 0.00 -139.02 4.72937 2.31836 0.00000
681.87 -2.33623 -2.33623 -65.50607 -249.97 0.00 -131.14 3.97937 -0.97152 0.00000
684.93 -2.56846 -2.56846 -104.61118 -230.57 0.00 -120.96 3.97937 -0.38906 0.00000
686.49 -2.78699 -2.78699 -139.76926 -217.82 0.00 -114.27 3.97937 0.12487 0.00000
689.48 -2.10333 -2.10333 -128.72012 -207.98 0.00 -109.11 3.97937 0.57834 0.00000
691.88 -1.37194 -1.37194 444.65118 -164.93 0.00 -86.53 1.54188 -10.63551 0.00000
694.93 -1.39321 -1.39321 374.86386 -97.32 0.00 -51.06 1.54188 -9.20288 0.00000
696.50 -1.41550 -1.41550 313.11792 -45.40 0.00 -23.82 1.54188 -7.93879 0.00000
699.48 -1.55849 -1.55849 252.71663 -6.78 0.00 -3.56 1.54188 -6.82341 0.00000
701.86 -1.67035 -1.67035 328.75476 28.23 0.00 14.81 0.97938 -8.51941 0.00000
704.95 -1.70581 -1.70581 273.41266 60.33 0.00 31.65 0.97938 -7.40191 0.00000
706.51 -1.74138 -1.74138 224.37540 82.51 0.00 43.29 0.97938 -6.41587 0.00000
709.48 -1.08254 -1.08254 214.23831 98.60 0.00 51.73 0.97938 -5.54584 0.00000
711.86 -0.41950 -0.41950 509.39270 129.57 0.00 67.97 -0.33312 -11.03185 0.00000
714.93 0.17922 0.17922 477.71484 172.39 0.00 90.44 -0.33312 -9.77317 0.00000
716.50 0.72779 0.72779 450.73764 206.73 0.00 108.45 -0.33312 -8.66258 0.00000
719.48 0.37686 0.37686 386.85617 231.67 0.00 121.54 -0.33312 -7.68264 0.00000
721.86 0.04774 0.04774 315.26096 245.72 0.00 128.91 -0.27062 -6.52020 0.00000
724.93 0.67135 0.67135 309.90283 253.59 0.00 133.04 -0.27062 -5.78496 0.00000
726.50 1.24912 1.24912 306.49567 260.01 0.00 136.41 -0.27062 -5.13621 0.00000
729.48 1.74161 1.74161 302.65897 265.25 0.00 139.16 -0.27062 -4.56379 0.00000
731.86 2.30081 2.30081 877.02148 303.44 0.00 157.38 -2.77063 -15.97047 0.00000
734.94 2.11450 2.11450 793.53845 366.01 0.00 157.38 -2.77063 -14.41755 0.00000
736.49 1.94004 1.94004 719.39331 411.95 0.00 157.38 -2.77063 -13.04732 0.00000
739.48 1.59562 1.59562 644.82776 443.73 0.00 157.38 -2.77063 -11.83829 0.00000
741.86 1.21943 1.21943 261.09454 444.82 0.00 157.38 -1.39562 -4.22004 0.00000
744.93 1.60942 1.60942 263.86438 423.36 0.00 157.38 -1.39562 -3.88775 0.00000
746.50 1.97102 1.97102 267.14758 404.79 0.00 157.38 -1.39562 -3.59456 0.00000
749.48 2.50104 2.50104 280.17096 389.37 0.00 157.38 -1.39562 -3.33586 0.00000
751.89 3.13392 3.13392 -49.63934 357.12 0.00 157.38 -4.83313 4.16807 0.00000
754.93 2.82030 2.82030 -13.86301 311.37 0.00 157.38 -4.83313 3.10911 0.00000
756.51 2.52926 2.52926 17.01764 274.92 0.00 144.23 -4.83313 2.17473 0.00000
759.49 2.23009 2.23009 42.23126 246.06 0.00 129.09 -4.83313 1.35028 0.00000
761.86 1.84517 1.84517 -541.68024 187.74 0.00 98.49 -2.20813 13.13017 0.00000
764.96 2.05863 2.05863 -444.81793 107.62 0.00 56.46 -2.20813 11.32567 0.00000
766.49 2.25653 2.25653 -358.89267 47.68 0.00 25.01 -2.20813 9.73346 0.00000
769.48 2.79823 2.79823 -265.45587 5.35 0.00 2.80 -2.20813 8.32856 0.00000
771.88 3.41893 3.41893 481.36816 17.42 0.00 9.14 -5.08313 -6.60958 0.00000
774.93 3.72038 3.72038 487.21756 72.34 0.00 37.95 -5.08313 -6.42999 0.00000
776.50 4.00038 4.00038 493.05203 121.50 0.00 63.74 -5.08313 -6.27153 0.00000
779.49 3.68307 3.68307 471.10986 163.92 0.00 85.99 -5.08313 -6.13172 0.00000
781.89 3.24077 3.24077 750.30768 216.48 0.00 113.57 -1.45812 -12.39064 0.00000
784.93 3.67702 3.67702 709.51111 276.88 0.00 145.26 -1.45812 -11.10446 0.00000
786.50 4.08194 4.08194 674.47357 325.72 0.00 157.38 -1.45812 -9.96960 0.00000
789.48 4.45585 4.45585 644.35675 364.98 0.00 157.38 -1.45812 -8.96825 0.00000
791.87 4.92466 4.92466 1296.27283 436.19 0.00 157.38 -4.39563 -22.08102 0.00000
794.92 4.68745 4.68745 1185.01636 530.84 0.00 157.38 -4.39563 -20.00039 0.00000
796.49 4.46837 4.46837 1086.37915 602.00 0.00 157.38 -4.39563 -18.16453 0.00000
799.48 4.02132 4.02132 987.16681 653.15 0.00 157.38 -4.39563 -16.54465 0.00000
801.86 3.50530 3.50530 322.02667 653.32 0.00 157.38 -1.89562 -3.20359 0.00000
804.96 3.84508 3.84508 330.94977 614.87 0.00 157.38 -1.89562 -3.04971 0.00000
806.49 4.16126 4.16126 339.60913 581.97 0.00 157.38 -1.89562 -2.91393 0.00000
809.48 4.32167 4.32167 341.55829 553.58 0.00 157.38 -1.89562 -2.79413 0.00000
811.87 4.52426 4.52426 646.38544 546.56 0.00 157.38 -3.20813 -8.94210 0.00000
814.93 4.29173 4.29173 602.84399 555.75 0.00 157.38 -3.20813 -8.26752 0.00000
816.49 4.07680 4.07680 563.95642 559.00 0.00 157.38 -3.20813 -7.67229 0.00000
819.48 4.54754 4.54754 561.34277 559.43 0.00 157.38 -3.20813 -7.14710 0.00000
821.86 4.88775 4.88775 12.25273 527.35 0.00 157.38 -0.83312 4.63249 0.00000
824.93 5.20907 5.20907 58.54035 469.48 0.00 157.38 -0.83312 3.98948 0.00000
826.51 5.50888 5.50888 100.16476 423.58 0.00 157.38 -0.83312 3.42211 0.00000
829.48 5.59545 5.59545 128.34990 387.19 0.00 157.38 -0.83312 2.92150 0.00000
831.88 5.69531 5.69531 254.40440 364.15 0.00 157.38 -1.27062 0.39522 0.00000
834.93 5.14319 5.14319 237.30978 350.24 0.00 157.38 -1.27062 0.19924 0.00000
836.49 4.63244 4.63244 221.09396 336.00 0.00 157.38 -1.27062 0.02631 0.00000
839.48 4.72728 4.72728 232.97028 323.18 0.00 157.38 -1.27062 -0.12627 0.00000
841.86 4.76379 4.76379 -44.69714 296.23 0.00 155.41 -0.02062 5.69498 0.00000
844.93 4.77448 4.77448 -11.90806 258.05 0.00 135.38 -0.02062 5.02256 0.00000
846.50 4.78599 4.78599 17.12361 228.00 0.00 119.61 -0.02062 4.42924 0.00000
849.49 4.52422 4.52422 29.68761 203.93 0.00 106.98 -0.02062 3.90573 0.00000
851.86 4.24131 4.24131 -190.42561 170.48 0.00 89.44 0.97938 8.20851 0.00000
854.95 4.02372 4.02372 -160.04677 129.81 0.00 68.10 0.97938 7.35802 0.00000
856.49 3.82334 3.82334 -133.64433 97.26 0.00 51.02 0.97938 6.60759 0.00000
859.48 4.07813 4.07813 -89.63136 72.69 0.00 38.13 0.97938 5.94545 0.00000
861.89 4.29752 4.29752 -151.11557 49.97 0.00 26.22 1.41688 7.44576 0.00000
864.93 4.03034 4.03034 -129.89462 27.56 0.00 14.46 1.41688 6.73648 0.00000
866.52 3.78371 3.78371 -111.69285 10.11 0.00 5.30 1.41688 6.11064 0.00000
869.49 3.26485 3.26485 -110.09219 -4.13 0.00 -2.16 1.41688 5.55844 0.00000
871.87 2.69688 2.69688 -599.96716 -45.41 0.00 -23.82 3.54187 15.19619 0.00000
874.93 3.01554 3.01554 -518.85889 -105.88 0.00 -55.55 3.54187 13.82510 0.00000
876.49 3.31128 3.31128 -446.59323 -150.21 0.00 -78.80 3.54187 12.61530 0.00000
879.48 3.58972 3.58972 -381.98978 -181.28 0.00 -95.10 3.54187 11.54784 0.00000
881.86 3.84874 3.84874 -324.34653 -201.50 0.00 -105.71 3.54187 10.60596 0.00000
884.93 3.22554 3.22554 -314.36874 -215.37 0.00 -112.99 3.54187 9.77489 0.00000
886.51 2.64820 2.64820 -306.88303 -226.58 0.00 -118.87 3.54187 9.04160 0.00000
889.50 2.21019 2.21019 -296.85004 -235.43 0.00 -123.51 3.54187 8.39457 0.00000
891.89 1.70673 1.70673 -836.78931 -274.42 0.00 -143.97 5.91687 19.13984 0.00000
894.93 1.97812 1.97812 -749.09167 -335.42 0.00 -157.38 5.91687 17.58419 0.00000
896.52 2.22957 2.22957 -671.13599 -379.50 0.00 -157.38 5.91687 16.21157 0.00000
899.48 1.59408 1.59408 -643.50458 -412.19 0.00 -157.38 5.91687 15.00042 0.00000
901.87 1.02908 1.02908 -476.38770 -429.57 0.00 -157.38 5.29187 10.95383 0.00000
904.93 0.48584 0.48584 -470.49014 -434.73 0.00 -157.38 5.29187 10.28771 0.00000
906.49 -0.01962 -0.01962 -466.54010 -438.71 0.00 -157.38 5.29187 9.69996 0.00000
909.49 -0.30705 -0.30705 -455.44382 -441.33 0.00 -157.38 5.29187 9.18136 0.00000
911.86 -0.64119 -0.64119 -821.16522 -464.50 0.00 -157.38 6.91687 16.46642 0.00000
914.95 -0.26196 -0.26196 -749.03522 -502.22 0.00 -157.38 6.91687 15.34294 0.00000
916.49 0.08843 0.08843 -684.63379 -527.47 0.00 -157.38 6.91687 14.35163 0.00000
919.48 -0.45603 -0.45603 -668.78320 -545.03 0.00 -157.38 6.91687 13.47696 0.00000
921.86 -0.91389 -0.91389 -382.12720 -542.72 0.00 -157.38 5.72937 7.04709 0.00000
924.93 -1.36638 -1.36638 -396.40530 -524.67 0.00 -157.38 5.72937 6.89207 0.00000
926.51 -1.78858 -1.78858 -410.10516 -510.39 0.00 -157.38 5.72937 6.75527 0.00000
929.48 -1.86920 -1.86920 -408.18118 -498.47 0.00 -157.38 5.72937 6.63458 0.00000
931.86 -1.99412 -1.99412 -680.65369 -503.88 0.00 -157.38 6.91687 12.18617 0.00000
934.93 -1.66937 -1.66937 -635.30951 -522.01 0.00 -157.38 6.91687 11.56625 0.00000
936.50 -1.36996 -1.36996 -594.68225 -532.95 0.00 -157.38 6.91687 11.01926 0.00000
939.48 -1.45440 -1.45440 -575.56909 -539.09 0.00 -157.38 6.91687 10.53662 0.00000
941.88 -1.45448 -1.45448 -112.01422 -516.11 0.00 -157.38 4.97937 0.87915 0.00000
944.93 -1.74810 -1.74810 -149.26208 -470.76 0.00 -157.38 4.97937 1.36153 0.00000
946.50 -2.02241 -2.02241 -182.85915 -434.91 0.00 -157.38 4.97937 1.78716 0.00000
949.49 -2.04200 -2.04200 -201.82631 -406.38 0.00 -157.38 4.97937 2.16271 0.00000
951.86 -2.07231 -2.07231 -276.36322 -386.70 0.00 -157.38 5.22937 3.68526 0.00000
954.95 -2.01893 -2.01893 -282.52045 -374.08 0.00 -157.38 5.22937 3.86691 0.00000
956.52 -1.97147 -1.97147 -287.93619 -363.63 0.00 -157.38 5.22937 4.02720 0.00000
959.49 -2.10121 -2.10121 -300.95245 -355.49 0.00 -157.38 5.22937 4.16863 0.00000
961.86 -2.16698 -2.16698 4.37141 -331.11 0.00 -157.38 3.85437 -2.25805 0.00000
964.93 -2.05629 -2.05629 -24.83276 -293.36 0.00 -153.90 3.85437 -1.53894 0.00000
966.51 -1.95575 -1.95575 -50.46300 -263.28 0.00 -138.12 3.85437 -0.90444 0.00000
969.48 -1.86049 -1.86049 -72.76369 -239.55 0.00 -125.67 3.85437 -0.34458 0.00000
971.87 -1.73748 -1.73748 109.54655 -209.20 0.00 -109.75 2.97937 -4.01970 0.00000
974.93 -1.13399 -1.13399 98.98997 -172.33 0.00 -90.40 2.97937 -3.19628 0.00000
976.51 -0.57586 -0.57586 90.90591 -140.88 0.00 -73.91 2.97937 -2.46973 0.00000
979.50 -0.99240 -0.99240 40.14061 -116.60 0.00 -61.17 2.97937 -1.82866 0.00000
981.88 -1.32166 -1.32166 325.94989 -81.35 0.00 -42.68 1.54188 -8.11228 0.00000
984.93 -1.53048 -1.53048 261.40857 -37.23 0.00 -19.53 1.54188 -6.97650 0.00000
986.51 -1.72653 -1.72653 203.89450 -5.48 0.00 -2.87 1.54188 -5.97433 0.00000
989.48 -1.31804 -1.31804 181.05775 17.81 0.00 9.34 1.54188 -5.09007 0.00000
991.87 -0.87386 -0.87386 536.57422 57.93 0.00 30.39 -0.08312 -12.05249 0.00000
994.93 -0.96742 -0.96742 464.49170 110.00 0.00 57.71 -0.08312 -10.64433 0.00000
996.53 -1.05649 -1.05649 400.57629 147.95 0.00 77.62 -0.08312 -9.40183 0.00000
999.49 -1.32338 -1.32338 335.14243 173.82 0.00 91.19 -0.08312 -8.30551 0.00000
1001.86 -1.53954 -1.53954 464.15790 200.39 0.00 105.13 -0.89562 -11.20950 0.00000
1004.97 -1.56950 -1.56950 404.47656 227.91 0.00 119.56 -0.89562 -9.99610 0.00000
1006.49 -1.59931 -1.59931 351.65509 245.57 0.00 128.83 -0.89562 -8.92546 0.00000
1009.48 -1.09070 -1.09070 330.72333 256.82 0.00 134.73 -0.89562 -7.98077 0.00000
1011.86 -0.53386 -0.53386 803.44135 293.32 0.00 153.88 -3.02063 -17.27222 0.00000
1014.93 -0.09891 -0.09891 743.83936 349.83 0.00 157.38 -3.02063 -15.59556 0.00000
1016.50 0.30344 0.30344 692.14062 393.14 0.00 157.38 -3.02063 -14.11615 0.00000
1019.48 0.50445 0.50445 639.13196 425.20 0.00 157.38 -3.02063 -12.81080 0.00000
1021.86 0.70571 0.70571 693.56531 453.57 0.00 157.38 -3.45813 -13.74357 0.00000
1024.96 0.64500 0.64500 632.56866 478.22 0.00 157.38 -3.45813 -12.53351 0.00000
1026.49 0.58788 0.58788 578.57745 493.20 0.00 157.38 -3.45813 -11.46582 0.00000
1029.48 0.88862 0.88862 547.79272 501.43 0.00 157.38 -3.45813 -10.52373 0.00000
1031.87 1.17713 1.17713 578.91772 508.72 0.00 157.38 -3.70813 -10.88366 0.00000
1034.93 0.94549 0.94549 527.27869 513.94 0.00 157.38 -3.70813 -10.03948 0.00000
1036.51 0.72988 0.72988 481.17572 512.80 0.00 157.38 -3.70813 -9.29461 0.00000
1039.48 1.34668 1.34668 479.23462 508.96 0.00 157.38 -3.70813 -8.63738 0.00000
1041.87 1.93438 1.93438 565.37305 510.53 0.00 157.38 -4.08313 -9.84423 0.00000
1044.93 1.88391 1.88391 530.41711 514.93 0.00 157.38 -4.08313 -9.16645 0.00000
1046.49 1.83710 1.83710 499.46423 514.93 0.00 157.38 -4.08313 -8.56841 0.00000
1049.49 1.87516 1.87516 475.96228 511.73 0.00 157.38 -4.08313 -8.04072 0.00000
1051.87 1.95710 1.95710 729.13464 522.41 0.00 157.38 -5.27063 -13.23321 0.00000
1054.93 1.93027 1.93027 682.88147 544.01 0.00 157.38 -5.27063 -12.29643 0.00000
1056.49 1.90289 1.90289 641.89197 557.94 0.00 157.38 -5.27063 -11.46986 0.00000
1059.48 2.19167 2.19167 620.74609 566.57 0.00 157.38 -5.27063 -10.74054 0.00000
1061.86 2.42290 2.42290 400.83838 560.01 0.00 157.38 -4.39563 -5.92790 0.00000
1064.93 2.25241 2.25241 384.00183 540.29 0.00 157.38 -4.39563 -5.74763 0.00000
1066.50 2.09402 2.09402 368.76407 521.01 0.00 157.38 -4.39563 -5.58856 0.00000
1069.49 2.17035 2.17035 365.69138 502.92 0.00 157.38 -4.39563 -5.44822 0.00000
1071.86 2.22558 2.22558 276.63361 481.53 0.00 157.38 -4.02063 -3.53761 0.00000
1074.93 2.79500 2.79500 306.69287 459.20 0.00 157.38 -4.02063 -3.59444 0.00000
1076.49 3.32411 3.32411 334.49683 442.89 0.00 157.38 -4.02063 -3.64458 0.00000
1079.48 3.69897 3.69897 354.61365 431.32 0.00 157.38 -4.02063 -3.68881 0.00000
1081.88 4.05473 4.05473 416.44592 425.93 0.00 157.38 -4.20813 -4.62123 0.00000
1084.93 4.06443 4.06443 414.57907 424.71 0.00 157.38 -4.20813 -4.57263 0.00000
1086.49 4.07367 4.07367 412.96381 423.42 0.00 157.38 -4.20813 -4.52975 0.00000
1089.48 3.95718 3.95718 405.55609 421.76 0.00 157.38 -4.20813 -4.49191 0.00000
1091.87 3.80917 3.80917 168.14328 405.88 0.00 157.38 -3.20813 0.30618 0.00000
1094.96 3.63582 3.63582 179.66817 378.59 0.00 157.38 -3.20813 -0.10726 0.00000
1096.49 3.47294 3.47294 189.36049 355.76 0.00 157.38 -3.20813 -0.47207 0.00000
1099.48 3.38450 3.38450 200.56618 336.84 0.00 157.38 -3.20813 -0.79396 0.00000
1101.86 3.22904 3.22904 -193.49841 297.63 0.00 156.14 -1.45812 7.26026 0.00000
1104.93 2.96023 2.96023 -157.16809 241.99 0.00 126.95 -1.45812 6.23457 0.00000
1106.50 2.71102 2.71102 -125.68895 196.88 0.00 103.29 -1.45812 5.32954 0.00000
1109.48 3.05248 3.05248 -70.96854 162.15 0.00 85.07 -1.45812 4.53099 0.00000
1111.88 3.36995 3.36995 -21.90906 137.61 0.00 72.19 -1.45812 3.82639 0.00000
1114.94 3.03793 3.03793 -8.00433 119.66 0.00 62.78 -1.45812 3.20468 0.00000
1116.49 2.73026 2.73026 3.55891 105.32 0.00 55.25 -1.45812 2.65612 0.00000
1119.48 3.14114 3.14114 46.51437 95.88 0.00 50.30 -1.45812 2.17209 0.00000
1121.89 3.48229 3.48229 -145.31644 78.78 0.00 41.33 -0.45812 6.50971 0.00000
1124.93 3.54524 3.54524 -102.94677 54.91 0.00 28.81 -0.45812 5.68997 0.00000
1126.50 3.60447 3.60447 -65.38504 38.55 0.00 20.22 -0.45812 4.96666 0.00000
1129.48 3.72941 3.72941 -28.75397 28.48 0.00 14.94 -0.45812 4.32845 0.00000
1131.61 3.84633 3.84633 3.88838 23.66 0.00 12.41 -0.45812 3.76532 0.00000
1135.30 3.27543 3.27543 -256.95877 5.99 0.00 3.14 0.66688 8.62874 0.00000
1136.49 2.74660 2.74660 -237.38159 -23.79 0.00 -12.48 0.66688 7.69205 0.00000
1139.49 3.12286 3.12286 -179.64972 -45.52 0.00 -23.88 0.66688 6.86556 0.00000
1141.52 3.47266 3.47266 -127.85458 -58.26 0.00 -30.56 0.66688 6.13630 0.00000
1145.30 3.65543 3.65543 -459.84241 -85.97 0.00 -45.10 2.29187 13.23548 0.00000
1146.49 3.82631 3.82631 -389.84082 -125.84 0.00 -66.02 2.29187 11.94800 0.00000
1149.49 3.56019 3.56019 -348.08594 -154.44 0.00 -81.02 2.29187 10.81198 0.00000
1151.50 3.31431 3.31431 -311.77466 -175.09 0.00 -91.85 2.29187 9.80962 0.00000
1155.30 2.73071 2.73071 -425.98126 -197.89 0.00 -103.81 2.85437 11.60532 0.00000
1156.49 2.18981 2.18981 -402.52753 -223.34 0.00 -117.17 2.85437 10.57580 0.00000
1159.49 2.46391 2.46391 -345.76685 -241.08 0.00 -126.48 2.85437 9.66739 0.00000
1161.51 2.71868 2.71868 -295.06476 -250.42 0.00 -131.37 2.85437 8.86586 0.00000
1165.30 2.85315 2.85315 -254.66254 -253.29 0.00 -132.88 2.85437 8.15862 0.00000
1166.49 2.97890 2.97890 -218.67297 -251.34 0.00 -131.86 2.85437 7.53459 0.00000
1169.48 2.71758 2.71758 -204.78680 -246.68 0.00 -129.41 2.85437 6.98398 0.00000
1171.50 2.47586 2.47586 -193.06952 -241.06 0.00 -126.46 2.85437 6.49814 0.00000
1175.30 1.98229 1.98229 -696.47827 -265.03 0.00 -139.04 5.04187 16.49225 0.00000
1176.50 1.52497 1.52497 -653.76874 -313.27 0.00 -157.38 5.04187 15.14515 0.00000
1179.48 1.51513 1.51513 -597.18695 -350.00 0.00 -157.38 5.04187 13.95653 0.00000
1181.51 1.50645 1.50645 -547.26184 -376.15 0.00 -157.38 5.04187 12.90774 0.00000
1185.30 1.55871 1.55871 -428.86377 -389.31 0.00 -157.38 4.72937 10.49337 0.00000
1186.49 1.60899 1.60899 -393.90088 -391.91 0.00 -157.38 4.72937 9.81525 0.00000
1189.48 0.97191 0.97191 -395.75986 -392.25 0.00 -157.38 4.72937 9.21691 0.00000
1191.49 0.38041 0.38041 -398.81067 -392.85 0.00 -157.38 4.72937 8.68896 0.00000
1195.30 0.58585 0.58585 -452.35419 -396.70 0.00 -157.38 5.10437 10.00989 0.00000
1196.49 0.77705 0.77705 -415.47427 -401.08 0.00 -157.38 5.10437 9.43277 0.00000
1199.48 0.55451 0.55451 -401.71371 -401.96 0.00 -157.38 5.10437 8.92354 0.00000
1201.50 0.34779 0.34779 -390.06921 -401.25 0.00 -157.38 5.10437 8.47423 0.00000
1205.30 0.49977 0.49977 -192.21451 -388.29 0.00 -157.38 4.35437 4.50424 0.00000
1206.49 0.64090 0.64090 -184.59402 -364.78 0.00 -157.38 4.35437 4.48661 0.00000
1209.48 0.23553 0.23553 -203.30521 -344.68 0.00 -157.38 4.35437 4.47105 0.00000
1211.51 -0.14132 -0.14132 -220.73502 -329.07 0.00 -157.38 4.35437 4.45732 0.00000
1215.30 -0.43631 -0.43631 -334.37164 -323.01 0.00 -157.38 4.79187 6.52977 0.00000
1216.49 -0.70975 -0.70975 -337.68301 -324.54 0.00 -157.38 4.79187 6.32531 0.00000
1219.48 -0.94038 -0.94038 -340.09357 -326.23 0.00 -157.38 4.79187 6.14490 0.00000
1221.49 -1.15519 -1.15519 -342.76385 -328.02 0.00 -157.38 4.79187 5.98572 0.00000
1225.31 -0.88941 -0.88941 -37.38222 -311.79 0.00 -157.38 3.54187 -0.11062 0.00000
1226.49 -0.64396 -0.64396 -46.22644 -280.03 0.00 -146.91 3.54187 0.31909 0.00000
1229.49 -0.97324 -0.97324 -80.23100 -254.52 0.00 -133.53 3.54187 0.69824 0.00000
1231.50 -1.28025 -1.28025 -111.02577 -235.83 0.00 -123.72 3.54187 1.03278 0.00000
1235.30 -1.21608 -1.21608 -50.64372 -217.59 0.00 -114.15 3.22937 -0.16100 0.00000
1236.49 -1.15788 -1.15788 -66.99582 -198.91 0.00 -104.35 3.22937 0.23787 0.00000
1239.48 -0.84538 -0.84538 -68.88876 -183.51 0.00 -96.27 3.22937 0.58981 0.00000
1241.52 -0.55623 -0.55623 -69.91553 -170.08 0.00 -89.23 3.22937 0.90034 0.00000
1245.31 -0.26734 -0.26734 388.21082 -131.35 0.00 -68.91 1.22938 -8.35506 0.00000
1246.49 -0.00052 -0.00052 346.89426 -72.65 0.00 -38.12 1.22938 -7.22748 0.00000
1249.48 -0.38871 -0.38871 280.50482 -27.20 0.00 -14.27 1.22938 -6.23256 0.00000
1251.49 -0.75005 -0.75005 221.02261 5.50 0.00 2.89 1.22938 -5.35468 0.00000
1255.30 -0.53635 -0.53635 165.51120 27.59 0.00 14.47 1.35438 -3.98450 0.00000
1256.49 -0.33808 -0.33808 144.87935 42.60 0.00 22.35 1.35438 -3.35640 0.00000
1259.48 0.07397 0.07397 138.05562 54.23 0.00 28.45 1.35438 -2.80219 0.00000
1261.49 0.45576 0.45576 132.90900 63.79 0.00 33.47 1.35438 -2.31318 0.00000
1265.30 0.94658 0.94658 850.46356 114.13 0.00 59.88 -1.77062 -16.77141 0.00000
1266.50 1.40163 1.40163 787.59546 197.06 0.00 103.38 -1.77062 -15.00661 0.00000
1269.48 1.23530 1.23530 704.86707 261.67 0.00 137.28 -1.77062 -13.44943 0.00000
1271.50 1.08035 1.08035 631.47839 309.49 0.00 157.38 -1.77062 -12.07545 0.00000
1275.30 0.71174 0.71174 226.82886 323.57 0.00 157.38 -0.33312 -4.01386 0.00000
1276.49 0.36926 0.36926 189.60446 310.00 0.00 157.38 -0.33312 -3.58083 0.00000
1279.48 0.92479 0.92479 197.92981 296.33 0.00 155.46 -0.33312 -3.19875 0.00000
1281.49 1.43979 1.43979 206.46721 285.25 0.00 149.65 -0.33312 -2.86161 0.00000
1285.30 1.32398 1.32398 858.45349 314.34 0.00 157.38 -3.27063 -16.56047 0.00000
1286.49 1.21532 1.21532 778.18909 373.63 0.00 157.38 -3.27063 -14.99695 0.00000
1289.48 0.89589 0.89589 696.63696 416.43 0.00 157.38 -3.27063 -13.61738 0.00000
1291.49 0.59926 0.59926 623.97009 445.12 0.00 157.38 -3.27063 -12.40012 0.00000
1295.31 0.88495 0.88495 314.54022 447.96 0.00 157.38 -2.08313 -5.66797 0.00000
1296.49 1.14714 1.14714 306.88110 431.81 0.00 157.38 -2.08313 -5.24622 0.00000
1299.48 1.68685 1.68685 314.92535 417.59 0.00 157.38 -2.08313 -4.87409 0.00000
1301.49 2.18776 2.18776 323.20782 406.00 0.00 157.38 -2.08313 -4.54574 0.00000
1305.30 2.45192 2.45192 1022.39301 437.38 0.00 157.38 -5.14563 -18.84793 0.00000
1306.49 2.69680 2.69680 956.76910 502.35 0.00 157.38 -5.14563 -17.23589 0.00000
1309.48 2.64559 2.64559 886.03656 551.65 0.00 157.38 -5.14563 -15.81351 0.00000
1311.51 2.59705 2.59705 823.46429 587.31 0.00 157.38 -5.14563 -14.55846 0.00000
1315.29 2.15044 2.15044 148.51927 575.39 0.00 157.38 -2.52063 -0.94371 0.00000
1316.49 1.73655 1.73655 137.55721 524.52 0.00 157.38 -2.52063 -1.12923 0.00000
1319.49 2.10270 2.10270 162.98978 480.49 0.00 157.38 -2.52063 -1.29292 0.00000
1321.49 2.44234 2.44234 186.22554 444.51 0.00 157.38 -2.52063 -1.43736 0.00000
1325.30 2.41572 2.41572 591.30017 437.95 0.00 157.38 -4.27063 -9.90303 0.00000
1326.49 2.39124 2.39124 558.31836 454.05 0.00 157.38 -4.27063 -9.24040 0.00000
1329.48 2.91284 2.91284 555.29083 466.14 0.00 157.38 -4.27063 -8.65572 0.00000
1331.49 3.39759 3.39759 553.79608 476.54 0.00 157.38 -4.27063 -8.13982 0.00000
1335.29 3.29455 3.29455 426.94162 478.17 0.00 157.38 -3.83313 -5.60007 0.00000
1336.49 3.19949 3.19949 412.40048 471.28 0.00 157.38 -3.83313 -5.39219 0.00000
1339.48 3.22650 3.22650 404.89288 463.92 0.00 157.38 -3.83313 -5.20877 0.00000
1341.49 3.25131 3.25131 398.31546 456.58 0.00 157.38 -3.83313 -5.04693 0.00000
1345.30 3.38815 3.38815 212.20587 438.78 0.00 157.38 -3.02063 -1.03281 0.00000
1346.49 3.51592 3.51592 229.56418 413.15 0.00 157.38 -3.02063 -1.26667 0.00000
1349.48 3.13086 3.13086 220.98592 391.04 0.00 157.38 -3.02063 -1.47301 0.00000
1351.49 2.77423 2.77423 212.60696 370.54 0.00 157.38 -3.02063 -1.65508 0.00000
1355.30 2.51288 2.51288 -92.40294 334.02 0.00 157.38 -1.70812 4.43794 0.00000
1356.50 2.27073 2.27073 -69.31911 285.21 0.00 149.63 -1.70812 3.71488 0.00000
1359.48 2.75952 2.75952 -15.23328 246.68 0.00 129.41 -1.70812 3.07688 0.00000
1361.50 3.21358 3.21358 33.58310 218.74 0.00 114.76 -1.70812 2.51394 0.00000
1365.30 2.88675 2.88675 113.20779 201.64 0.00 105.78 -2.02063 0.52825 0.00000
1366.49 2.58076 2.58076 112.91423 191.22 0.00 100.32 -2.02063 0.22838 0.00000
1369.48 2.18113 2.18113 106.43198 181.63 0.00 95.28 -2.02063 -0.03620 0.00000
1371.50 1.81037 1.81037 99.84142 172.39 0.00 90.44 -2.02063 -0.26966 0.00000
1375.30 2.00869 2.00869 -138.04550 149.86 0.00 78.62 -0.89562 4.88464 0.00000
1376.49 2.19328 2.19328 -96.54339 118.43 0.00 62.13 -0.89562 4.20461 0.00000
1379.49 2.66179 2.66179 -45.25409 96.16 0.00 50.45 -0.89562 3.60458 0.00000
1381.51 3.09705 3.09705 1.05160 82.25 0.00 43.15 -0.89562 3.07514 0.00000
1385.30 2.66175 2.66175 -254.71387 57.65 0.00 30.24 0.22938 7.96829 0.00000
1386.49 2.25839 2.25839 -230.37277 22.33 0.00 11.72 0.22938 7.05783 0.00000
1389.49 1.91388 1.91388 -208.34898 -6.10 0.00 -3.20 0.22938 6.25448 0.00000
1391.51 1.59428 1.59428 -189.66554 -28.80 0.00 -15.11 0.22938 5.54564 0.00000
1395.30 1.83127 1.83127 -634.26843 -73.88 0.00 -38.76 2.35437 15.04520 0.00000
1396.49 2.05153 2.05153 -552.03015 -134.97 0.00 -70.81 2.35437 13.55216 0.00000
1399.49 2.27463 2.27463 -478.08698 -179.68 0.00 -94.26 2.35437 12.23477 0.00000
1401.49 2.48225 2.48225 -412.32574 -210.92 0.00 -110.65 2.35437 11.07237 0.00000
1405.30 1.97342 1.97342 -73.04778 -214.66 0.00 -112.61 0.97938 3.49525 0.00000
1406.49 1.50139 1.50139 -81.49784 -198.50 0.00 -104.13 0.97938 3.19927 0.00000
1409.49 1.17625 1.17625 -84.56877 -184.91 0.00 -97.01 0.97938 2.93810 0.00000
1411.52 0.87422 0.87422 -88.00546 -173.31 0.00 -90.92 0.97938 2.70766 0.00000
1415.30 1.23283 1.23283 -732.85583 -201.21 0.00 -105.56 3.91687 16.50066 0.00000
1416.49 1.56520 1.56520 -645.84033 -258.63 0.00 -135.68 3.91687 15.02021 0.00000
1419.48 1.74598 1.74598 -574.46155 -299.99 0.00 -157.38 3.91687 13.71393 0.00000
1421.49 1.91562 1.91562 -510.99417 -328.55 0.00 -157.38 3.91687 12.56133 0.00000
1425.30 1.79205 1.79205 -296.58060 -337.40 0.00 -157.38 3.16687 7.97081 0.00000
1426.49 1.67863 1.67863 -274.89630 -331.32 0.00 -157.38 3.16687 7.40564 0.00000
1429.48 1.32791 1.32791 -267.79425 -324.26 0.00 -157.38 3.16687 6.90696 0.00000
1431.51 1.00271 1.00271 -262.28314 -317.30 0.00 -157.38 3.16687 6.46694 0.00000
1435.30 1.01809 1.01809 -671.73291 -334.91 0.00 -157.38 5.04187 15.01252 0.00000
1436.49 1.03245 1.03245 -614.73859 -371.18 0.00 -157.38 5.04187 13.83950 0.00000
1439.48 1.20368 1.20368 -556.83844 -396.43 0.00 -157.38 5.04187 12.80449 0.00000
1441.51 1.36275 1.36275 -505.36749 -412.27 0.00 -157.38 5.04187 11.89124 0.00000
1445.30 1.04074 1.04074 -253.43921 -408.41 0.00 -157.38 4.04187 6.32072 0.00000
1446.50 0.74193 0.74193 -254.91293 -390.26 0.00 -157.38 4.04187 6.05262 0.00000
1449.48 0.25164 0.25164 -267.09235 -375.06 0.00 -157.38 4.04187 5.81606 0.00000
1451.52 -0.20409 -0.20409 -278.94818 -363.05 0.00 -157.38 4.04187 5.60733 0.00000
1455.32 0.15064 0.15064 -338.84576 -356.68 0.00 -157.38 4.41687 7.20992 0.00000
1456.49 0.47903 0.47903 -307.31042 -352.73 0.00 -157.38 4.41687 6.88133 0.00000
1459.48 0.66723 0.66723 -284.35944 -346.03 0.00 -157.38 4.41687 6.59139 0.00000
1461.49 0.84215 0.84215 -263.68353 -337.56 0.00 -157.38 4.41687 6.33556 0.00000
1465.30 0.29411 0.29411 -79.03720 -318.01 0.00 -157.38 3.54187 1.94072 0.00000
1466.49 -0.21498 -0.21498 -112.51511 -291.86 0.00 -153.12 3.54187 2.12909 0.00000
1469.48 0.09864 0.09864 -105.43945 -270.35 0.00 -141.83 3.54187 2.29530 0.00000
1471.50 0.39012 0.39012 -98.48804 -250.54 0.00 -131.44 3.54187 2.44195 0.00000
1475.30 0.70296 0.70296 -18.21249 -227.93 0.00 -119.57 3.22937 1.08238 0.00000
1476.49 0.99356 0.99356 -16.38789 -203.15 0.00 -106.57 3.22937 1.33497 0.00000
1479.48 0.90732 0.90732 -31.22502 -182.05 0.00 -95.51 3.22937 1.55784 0.00000
1481.50 0.82740 0.82740 -44.50021 -165.09 0.00 -86.61 3.22937 1.75449 0.00000
1485.30 0.34568 0.34568 138.46033 -140.14 0.00 -73.52 2.29187 -2.53891 0.00000
1486.49 -0.10199 -0.10199 89.69252 -110.23 0.00 -57.83 2.29187 -1.97058 0.00000
1489.48 0.35674 0.35674 87.64091 -86.83 0.00 -45.55 2.29187 -1.46912 0.00000
1491.50 0.78178 0.78178 86.80458 -66.35 0.00 -34.81 2.29187 -1.02665 0.00000
1495.30 1.23499 1.23499 490.05377 -24.61 0.00 -12.91 0.54188 -8.97447 0.00000
1496.49 1.65548 1.65548 456.49811 33.96 0.00 17.82 0.54188 -7.85490 0.00000
1499.48 1.17634 1.17634 386.08209 79.53 0.00 41.72 0.54188 -6.86704 0.00000
1501.49 0.73220 0.73220 322.92490 111.88 0.00 58.69 0.54188 -5.99540 0.00000
1505.30 0.29956 0.29956 279.53619 134.16 0.00 70.38 0.47938 -5.52411 0.00000
1506.49 -0.10247 -0.10247 226.33672 148.13 0.00 77.71 0.47938 -4.81781 0.00000
1509.49 0.17652 0.17652 209.81465 156.36 0.00 82.03 0.47938 -4.19462 0.00000
1511.49 0.43684 0.43684 195.91576 161.83 0.00 84.90 0.47938 -3.64474 0.00000
1515.30 0.90620 0.90620 709.74402 196.07 0.00 102.86 -1.77062 -13.88013 0.00000
1516.49 1.34102 1.34102 662.23236 253.70 0.00 133.10 -1.77062 -12.45548 0.00000
1519.48 1.04759 1.04759 587.80951 297.39 0.00 156.01 -1.77062 -11.19844 0.00000
1521.50 0.77470 0.77470 521.47137 327.65 0.00 157.38 -1.77062 -10.08928 0.00000
1525.30 0.80335 0.80335 347.22327 340.21 0.00 157.38 -1.20812 -6.43047 0.00000
1526.49 0.82825 0.82825 318.92749 339.37 0.00 157.38 -1.20812 -5.81608 0.00000
1529.48 1.17474 1.17474 309.53796 336.41 0.00 157.38 -1.20812 -5.27396 0.00000
1531.49 1.49625 1.49625 302.01007 332.81 0.00 157.38 -1.20812 -4.79563 0.00000
1535.30 1.32117 1.32117 616.40649 347.68 0.00 157.38 -2.70813 -11.52063 0.00000
1536.50 1.15748 1.15748 558.78467 375.90 0.00 157.38 -2.70813 -10.48386 0.00000
1539.48 0.82324 0.82324 498.83063 393.89 0.00 157.38 -2.70813 -9.56907 0.00000
1541.50 0.51295 0.51295 445.19263 403.08 0.00 157.38 -2.70813 -8.76190 0.00000
1545.30 1.13588 1.13588 383.73071 404.42 0.00 157.38 -2.45813 -6.85851 0.00000
1546.49 1.71368 1.71368 386.61584 402.16 0.00 157.38 -2.45813 -6.34082 0.00000
1549.48 1.82279 1.82279 369.92706 399.35 0.00 157.38 -2.45813 -5.88403 0.00000
1551.51 1.92419 1.92419 355.44806 395.03 0.00 157.38 -2.45813 -5.48098 0.00000
1555.30 1.84180 1.84180 577.42322 403.43 0.00 157.38 -3.52063 -10.18785 0.00000
1556.49 1.76435 1.76435 536.05518 421.47 0.00 157.38 -3.52063 -9.40347 0.00000
1559.49 1.42101 1.42101 486.35385 432.03 0.00 157.38 -3.52063 -8.71137 0.00000
1561.51 1.10239 1.10239 441.74789 435.79 0.00 157.38 -3.52063 -8.10069 0.00000
1565.30 1.69187 1.69187 315.53210 429.07 0.00 157.38 -2.95813 -4.88171 0.00000
1566.49 2.23898 2.23898 330.93066 416.62 0.00 157.38 -2.95813 -4.65541 0.00000
1569.48 2.35433 2.35433 326.88287 406.30 0.00 157.38 -2.95813 -4.45573 0.00000
1571.50 2.46166 2.46166 323.57739 396.76 0.00 157.38 -2.95813 -4.27954 0.00000
1575.30 2.32479 2.32479 209.48689 381.44 0.00 157.38 -2.52063 -2.03952 0.00000
1576.49 2.19803 2.19803 206.11885 361.01 0.00 157.38 -2.52063 -2.09612 0.00000
1579.48 2.62857 2.62857 229.18231 344.15 0.00 157.38 -2.52063 -2.14606 0.00000
1581.52 3.02865 3.02865 250.50096 331.88 0.00 157.38 -2.52063 -2.19012 0.00000
1585.31 3.45473 3.45473 358.58417 328.66 0.00 157.38 -2.89563 -4.01577 0.00000
1586.49 3.85143 3.85143 371.30008 332.93 0.00 157.38 -2.89563 -3.88399 0.00000
1589.49 3.42601 3.42601 345.29846 335.91 0.00 157.38 -2.89563 -3.76771 0.00000
1591.50 3.03185 3.03185 321.45410 335.61 0.00 157.38 -2.89563 -3.66511 0.00000
1595.30 2.70862 2.70862 -227.28877 301.67 0.00 157.38 -0.58312 7.44380 0.00000
1596.49 2.40938 2.40938 -196.32390 241.26 0.00 126.57 -0.58312 6.49946 0.00000
1599.48 2.77628 2.77628 -138.71686 193.17 0.00 101.34 -0.58312 5.66621 0.00000
1601.49 3.11786 3.11786 -87.03053 157.16 0.00 82.45 -0.58312 4.93100 0.00000
1605.30 3.39962 3.39962 86.27936 138.63 0.00 72.73 -1.14562 1.60213 0.00000
1606.49 3.66223 3.66223 114.40150 134.13 0.00 70.36 -1.14562 1.27886 0.00000
1609.48 3.63729 3.63729 126.89548 132.54 0.00 69.53 -1.14562 0.99363 0.00000
1611.49 3.61442 3.61442 137.87845 132.52 0.00 69.52 -1.14562 0.74195 0.00000
1615.30 3.20657 3.20657 -342.74506 104.88 0.00 55.02 0.91688 10.34709 0.00000
1616.49 2.82936 2.82936 -307.59796 54.29 0.00 28.48 0.91688 9.23765 0.00000
1619.48 3.09684 3.09684 -247.77090 15.23 0.00 7.99 0.91688 8.25874 0.00000
1621.49 3.34600 3.34600 -194.35120 -12.57 0.00 -6.59 0.91688 7.39499 0.00000
1625.30 2.77698 2.77698 -99.31744 -28.36 0.00 -14.88 0.54188 4.84609 0.00000
1626.50 2.25021 2.25021 -100.29602 -36.77 0.00 -19.29 0.54188 4.33971 0.00000
1629.48 1.85164 1.85164 -97.98100 -44.11 0.00 -23.14 0.54188 3.89291 0.00000
1631.49 1.48191 1.48191 -96.80436 -50.38 0.00 -26.43 0.54188 3.49867 0.00000
1635.30 1.31817 1.31817 -559.67236 -83.07 0.00 -43.58 2.60437 12.97801 0.00000
1636.49 1.16685 1.16685 -508.35498 -136.12 0.00 -71.41 2.60437 11.75758 0.00000
1639.48 1.45593 1.45593 -442.79047 -176.05 0.00 -92.36 2.60437 10.68073 0.00000
1641.49 1.72440 1.72440 -384.29636 -203.99 0.00 -107.02 2.60437 9.73057 0.00000
1645.30 1.98156 1.98156 -203.06323 -214.55 0.00 -112.55 2.04187 6.21205 0.00000
1646.49 2.22093 2.22093 -168.02435 -211.13 0.00 -110.76 2.04187 5.72144 0.00000
1649.48 1.93874 1.93874 -160.79054 -205.64 0.00 -107.88 2.04187 5.28855 0.00000
1651.51 1.67709 1.67709 -155.01576 -200.02 0.00 -104.93 2.04187 4.90658 0.00000
1655.30 1.29023 1.29023 -614.81952 -221.77 0.00 -116.35 4.04187 14.09897 0.00000
1656.49 0.93238 0.93238 -575.20337 -265.68 0.00 -139.38 4.04187 12.91578 0.00000
1659.49 1.25576 1.25576 -509.56927 -298.24 0.00 -156.46 4.04187 11.87179 0.00000
1661.49 1.55565 1.55565 -450.95856 -319.65 0.00 -157.38 4.04187 10.95062 0.00000
1665.30 1.87308 1.87308 -325.23734 -327.70 0.00 -157.38 3.72937 8.64885 0.00000
1666.49 2.16775 2.16775 -283.31213 -324.95 0.00 -157.38 3.72937 8.07009 0.00000
1669.48 1.55323 1.55323 -288.29681 -320.34 0.00 -157.38 3.72937 7.55941 0.00000
1671.50 0.98297 0.98297 -294.04056 -316.91 0.00 -157.38 3.72937 7.10882 0.00000
1675.30 0.48204 0.48204 -713.53058 -338.90 0.00 -157.38 5.54187 15.34726 0.00000
1676.49 0.01779 0.01779 -680.44299 -381.02 0.00 -157.38 5.54187 14.19369 0.00000
1679.48 0.36858 0.36858 -614.74756 -412.39 0.00 -157.38 5.54187 13.17582 0.00000
1681.50 0.69324 0.69324 -556.05426 -432.74 0.00 -157.38 5.54187 12.27771 0.00000
1685.30 0.93349 0.93349 -63.36694 -418.27 0.00 -157.38 3.60437 2.25364 0.00000
1686.50 1.15621 1.15621 -60.30418 -376.33 0.00 -157.38 3.60437 2.41255 0.00000
1689.49 0.58465 0.58465 -94.46938 -341.16 0.00 -157.38 3.60437 2.55276 0.00000
1691.49 0.05370 0.05370 -125.89330 -313.99 0.00 -157.38 3.60437 2.67648 0.00000
1695.30 -0.43772 -0.43772 -626.42706 -321.30 0.00 -157.38 5.66687 12.61285 0.00000
1696.49 -0.89446 -0.89446 -609.12634 -356.18 0.00 -157.38 5.66687 11.79567 0.00000
1699.48 -0.48172 -0.48172 -554.70459 -382.74 0.00 -157.38 5.66687 11.07463 0.00000
1701.50 -0.10004 -0.10004 -505.84601 -400.10 0.00 -157.38 5.66687 10.43842 0.00000
1705.30 0.35785 0.35785 243.48990 -368.46 0.00 -157.38 2.60437 -4.71485 0.00000
1706.49 0.78192 0.78192 222.51315 -297.70 0.00 -156.18 2.60437 -3.85377 0.00000
1709.48 0.27589 0.27589 161.75432 -240.07 0.00 -125.94 2.60437 -3.09399 0.00000
1711.52 -0.19408 -0.19408 107.01649 -196.02 0.00 -102.83 2.60437 -2.42359 0.00000
1715.30 -0.28751 -0.28751 -411.86139 -190.89 0.00 -100.14 4.72937 8.29293 0.00000
1716.49 -0.37463 -0.37463 -395.91931 -215.95 0.00 -113.29 4.72937 7.87369 0.00000
1719.48 0.00099 0.00099 -360.13318 -235.02 0.00 -123.29 4.72937 7.50377 0.00000
1721.49 0.34873 0.34873 -327.77463 -247.83 0.00 -130.02 4.72937 7.17736 0.00000
1725.31 0.85237 0.85237 -496.06659 -267.14 0.00 -140.14 0.66688 11.18709 0.00000
1726.49 1.31910 1.31910 -414.25549 -289.26 0.00 -151.75 0.66688 9.94942 0.00000
1729.48 0.93276 0.93276 -380.38049 -301.97 0.00 -157.38 0.66688 8.85735 0.00000
1731.49 0.57387 0.57387 -351.35492 -309.49 0.00 -157.38 0.66688 7.89377 0.00000
1735.30 0.19329 0.19329 -557.51794 -326.54 0.00 -157.38 1.66688 11.80825 0.00000
1736.49 -0.15988 -0.15988 -517.20129 -351.34 0.00 -157.38 1.66688 10.61514 0.00000
1739.48 0.23868 0.23868 -447.53876 -366.76 0.00 -157.38 1.66688 9.56240 0.00000
1741.51 0.60841 0.60841 -385.20532 -372.59 0.00 -157.38 1.66688 8.63352 0.00000
1745.30 0.50070 0.50070 63.49525 -347.68 0.00 -157.38 -0.14562 -0.82212 0.00000
1746.49 0.40043 0.40043 54.86212 -299.82 0.00 -157.29 -0.14562 -0.74253 0.00000
1749.49 0.00888 0.00888 32.69686 -259.39 0.00 -136.08 -0.14562 -0.67231 0.00000
1751.49 -0.35516 -0.35516 12.24876 -226.23 0.00 -118.69 -0.14562 -0.61034 0.00000
1755.30 0.14438 0.14438 262.30817 -183.47 0.00 -96.25 -1.14562 -5.32038 0.00000
1756.49 0.60711 0.60711 260.94421 -131.10 0.00 -68.78 -1.14562 -4.82923 0.00000
1759.48 0.79574 0.79574 249.19684 -85.67 0.00 -44.94 -1.14562 -4.39586 0.00000
1761.50 0.97168 0.97168 239.28786 -46.86 0.00 -24.58 -1.14562 -4.01348 0.00000
1765.30 1.05325 1.05325 584.36096 7.10 0.00 3.73 -2.70813 -11.12094 0.00000
1766.49 1.12768 1.12768 540.42596 72.43 0.00 38.00 -2.70813 -10.13120 0.00000
1769.49 1.21123 1.21123 502.51770 125.26 0.00 65.71 -2.70813 -9.25789 0.00000
1771.50 1.28853 1.28853 469.24115 167.69 0.00 87.97 -2.70813 -8.48733 0.00000
1775.30 1.05168 1.05168 596.76611 210.67 0.00 110.52 -3.45813 -11.38095 0.00000
1776.49 0.83123 0.83123 541.44409 252.83 0.00 132.64 -3.45813 -10.44885 0.00000
1779.49 1.00058 1.00058 510.09549 284.94 0.00 149.49 -3.45813 -9.62641 0.00000
1781.50 1.15689 1.15689 482.76538 309.83 0.00 157.38 -3.45813 -8.90072 0.00000
1785.30 0.91448 0.91448 783.45392 347.86 0.00 157.38 -4.95813 -15.40747 0.00000
1786.49 0.68931 0.68931 713.63745 395.00 0.00 157.38 -4.95813 -14.17813 0.00000
1789.49 0.67068 0.67068 660.67725 429.37 0.00 157.38 -4.95813 -13.09343 0.00000
1791.49 0.65142 0.65142 613.81183 453.83 0.00 157.38 -4.95813 -12.13633 0.00000
1795.30 1.41938 1.41938 938.90314 491.77 0.00 157.38 -6.39563 -18.14110 0.00000
1796.49 2.13201 2.13201 906.78168 542.48 0.00 157.38 -6.39563 -16.75927 0.00000
1799.48 2.30741 2.30741 856.67664 582.40 0.00 157.38 -6.39563 -15.54002 0.00000
1801.49 2.46642 2.46642 812.67023 612.08 0.00 157.38 -6.39563 -14.46420 0.00000
1805.30 3.04870 3.04870 766.46753 632.96 0.00 157.38 -6.27063 -12.91937 0.00000
1806.49 3.58972 3.58972 754.89014 647.98 0.00 157.38 -6.27063 -12.13716 0.00000
1809.48 3.92969 3.92969 738.08026 659.57 0.00 157.38 -6.27063 -11.44698 0.00000
1811.51 4.24491 4.24491 723.97955 667.98 0.00 157.38 -6.27063 -10.83799 0.00000
1815.29 4.04584 4.04584 745.80786 675.85 0.00 157.38 -6.52063 -11.49183 0.00000
1816.49 3.86203 3.86203 708.91272 681.91 0.00 157.38 -6.52063 -10.90698 0.00000
1819.48 4.41611 4.41611 710.73798 685.19 0.00 157.38 -6.52063 -10.39094 0.00000
1821.49 4.93204 4.93204 713.64679 688.37 0.00 157.38 -6.52063 -9.93560 0.00000
1825.30 4.60274 4.60274 735.73242 692.64 0.00 157.38 -6.77063 -10.72502 0.00000
1826.49 4.29820 4.29820 698.78375 695.54 0.00 157.38 -6.77063 -10.25979 0.00000
1829.48 4.55947 4.55947 691.62097 695.50 0.00 157.38 -6.77063 -9.84930 0.00000
1831.50 4.80174 4.80174 685.86426 694.70 0.00 157.38 -6.77063 -9.48710 0.00000
1835.30 4.81444 4.81444 799.78088 700.37 0.00 157.38 -7.33313 -11.84766 0.00000
1836.49 4.82638 4.82638 774.85962 710.60 0.00 157.38 -7.33313 -11.31653 0.00000
1839.48 4.84465 4.84465 753.24225 716.88 0.00 157.38 -7.33313 -10.84789 0.00000
1841.51 4.84461 4.84461 733.39178 719.99 0.00 157.38 -7.33313 -10.43439 0.00000
1845.30 5.33479 5.33479 553.58368 710.99 0.00 157.38 -6.52063 -6.19821 0.00000
1846.49 5.78929 5.78929 577.22021 693.86 0.00 157.38 -6.52063 -6.23614 0.00000
1849.49 5.41710 5.41710 560.96173 679.19 0.00 157.38 -6.52063 -6.26960 0.00000
1851.49 5.07257 5.07257 545.84167 664.39 0.00 157.38 -6.52063 -6.29913 0.00000
1855.30 5.29812 5.29812 500.74228 647.79 0.00 157.38 -6.27063 -5.13401 0.00000
1856.49 5.50780 5.50780 517.22559 631.46 0.00 157.38 -6.27063 -5.26773 0.00000
1859.49 5.37574 5.37574 516.55005 617.98 0.00 157.38 -6.27063 -5.38572 0.00000
1861.50 5.25448 5.25448 515.72620 606.00 0.00 157.38 -6.27063 -5.48982 0.00000
1865.30 5.66805 5.66805 439.92783 590.92 0.00 157.38 -5.83313 -3.49712 0.00000
1866.49 6.05399 6.05399 471.64444 575.02 0.00 157.38 -5.83313 -3.77194 0.00000
1869.48 5.65261 5.65261 464.01782 562.41 0.00 157.38 -5.83313 -4.01443 0.00000
1871.50 5.28208 5.28208 456.50281 550.39 0.00 157.38 -5.83313 -4.22839 0.00000
1875.30 5.18611 5.18611 60.72281 516.07 0.00 157.38 -4.08313 3.92105 0.00000
1876.49 5.09773 5.09773 101.68034 464.90 0.00 157.38 -4.08313 2.97939 0.00000
1879.48 5.11265 5.11265 142.27890 424.56 0.00 157.38 -4.08313 2.14850 0.00000
1881.49 5.12799 5.12799 178.20575 393.46 0.00 157.38 -4.08313 1.41537 0.00000
1885.30 5.39748 5.39748 136.42694 365.68 0.00 157.38 -3.70813 2.55526 0.00000
1886.50 5.64932 5.64932 183.88463 341.50 0.00 157.38 -3.70813 1.81839 0.00000
1889.48 5.13164 5.13164 190.24448 323.33 0.00 157.38 -3.70813 1.16821 0.00000
1891.50 4.65267 4.65267 194.79071 307.94 0.00 157.38 -3.70813 0.59453 0.00000
1895.30 5.04658 5.04658 -33.59253 281.20 0.00 147.52 -2.52063 5.74642 0.00000
1896.49 5.41384 5.41384 30.72043 247.95 0.00 130.08 -2.52063 4.77383 0.00000
1899.48 5.58575 5.58575 80.16454 225.30 0.00 118.19 -2.52063 3.91566 0.00000
1901.51 5.74664 5.74664 124.23285 210.82 0.00 110.60 -2.52063 3.15845 0.00000
1905.30 5.78018 5.78018 -13.61627 192.52 0.00 101.00 -1.77062 6.06385 0.00000
1906.49 5.81343 5.81343 32.22134 170.97 0.00 89.69 -1.77062 5.14215 0.00000
1909.49 6.10954 6.10954 85.47146 157.78 0.00 82.77 -1.77062 4.32888 0.00000
1911.49 6.38641 6.38641 133.20561 152.08 0.00 79.78 -1.77062 3.61129 0.00000
1915.31 6.00381 6.00381 -255.00252 127.02 0.00 66.64 -0.02062 11.31636 0.00000
1916.50 5.65388 5.65388 -207.77861 84.85 0.00 44.52 -0.02062 9.98260 0.00000
1919.48 5.68116 5.68116 -149.98027 53.83 0.00 28.24 -0.02062 8.80575 0.00000
1921.49 5.70820 5.70820 -98.83919 32.86 0.00 17.24 -0.02062 7.76735 0.00000
1925.30 4.96640 4.96640 -490.70148 -5.69 0.00 -2.98 1.72938 15.18935 0.00000
1926.49 4.27947 4.27947 -447.66492 -60.22 0.00 -31.59 1.72938 13.60582 0.00000
1929.49 3.93253 3.93253 -397.25110 -102.83 0.00 -53.95 1.72938 12.20859 0.00000
1931.50 3.61092 3.61092 -353.51141 -134.90 0.00 -70.77 1.72938 10.97574 0.00000
1935.30 3.34924 3.34924 -399.62177 -163.33 0.00 -85.68 2.10437 11.67470 0.00000
1936.49 3.10794 3.10794 -357.16022 -188.63 0.00 -98.96 2.10437 10.54878 0.00000
1939.49 2.83066 2.83066 -322.78326 -206.43 0.00 -108.30 2.10437 9.55532 0.00000
1941.51 2.57344 2.57344 -293.05408 -218.37 0.00 -114.56 2.10437 8.67873 0.00000
1945.30 2.83642 2.83642 -643.54041 -247.78 0.00 -129.99 3.85437 16.24351 0.00000
1946.50 3.08073 3.08073 -561.85144 -289.53 0.00 -151.89 3.85437 14.78596 0.00000
1949.49 3.36125 3.36125 -486.65506 -317.15 0.00 -157.38 3.85437 13.49989 0.00000
1951.49 3.62194 3.62194 -419.67297 -333.15 0.00 -157.38 3.85437 12.36512 0.00000
1955.29 2.93558 2.93558 -733.32178 -361.78 0.00 -157.38 5.29187 18.21312 0.00000
1956.49 2.29898 2.29898 -690.91150 -402.99 0.00 -157.38 5.29187 16.69297 0.00000
1959.48 1.67166 1.67166 -656.64014 -434.85 0.00 -157.38 5.29187 15.35166 0.00000
1961.49 1.08891 1.08891 -627.80365 -459.25 0.00 -157.38 5.29187 14.16815 0.00000
1965.30 1.19073 1.19073 -730.02637 -485.09 0.00 -157.38 5.97937 16.39962 0.00000
1966.49 1.28578 1.28578 -666.62036 -510.18 0.00 -157.38 5.97937 15.17370 0.00000
1969.48 0.92705 0.92705 -631.91840 -526.54 0.00 -157.38 5.97937 14.09202 0.00000
1971.50 0.59511 0.59511 -602.03906 -537.18 0.00 -157.38 5.97937 13.13759 0.00000
1975.04 0.05113 0.05113 -587.72668 -543.97 0.00 -157.38 5.97937 12.29544 0.00000
1976.86 -0.47807 -0.47807 -706.10815 -556.08 0.00 -157.38 6.54187 14.23252 0.00000
1979.51 -0.56110 -0.56110 -666.66376 -571.41 0.00 -157.38 6.54187 13.32773 0.00000
1981.49 -0.63595 -0.63595 -631.93665 -580.57 0.00 -157.38 6.54187 12.52939 0.00000
1984.93 -0.37512 -0.37512 -585.60461 -583.89 0.00 -157.38 6.54187 11.82498 0.00000
1986.87 -0.08516 -0.08516 -270.26413 -565.54 0.00 -157.38 5.35437 5.54535 0.00000
1989.48 -0.10582 -0.10582 -270.17725 -530.80 0.00 -157.38 5.35437 5.52288 0.00000
1991.50 -0.12549 -0.12549 -270.17020 -500.14 0.00 -157.38 5.35437 5.50305 0.00000
1994.93 -0.41070 -0.41070 -283.02036 -473.84 0.00 -157.38 5.35437 5.48556 0.00000
1996.85 -0.70439 -0.70439 -453.61166 -461.42 0.00 -157.38 6.04187 8.74586 0.00000
1999.48 -0.63769 -0.63769 -435.14081 -459.42 0.00 -157.38 6.04187 8.42774 0.00000
2001.49 -0.57688 -0.57688 -418.74838 -455.60 0.00 -157.38 6.04187 8.14705 0.00000
2004.93 -1.07413 -1.07413 -430.72852 -451.97 0.00 -157.38 6.04187 7.89938 0.00000
2006.87 -1.48068 -1.48068 -125.28250 -431.50 0.00 -157.38 4.66687 1.12938 0.00000
2009.48 -1.86379 -1.86379 -163.64841 -397.73 0.00 -157.38 4.66687 1.54555 0.00000
2011.49 -2.22152 -2.22152 -198.44568 -372.24 0.00 -157.38 4.66687 1.91276 0.00000
2014.93 -2.52762 -2.52762 -228.69072 -353.57 0.00 -157.38 4.66687 2.23677 0.00000
2016.87 -2.82473 -2.82473 -313.85126 -343.89 0.00 -157.38 4.91687 3.71384 0.00000
2019.51 -2.20113 -2.20113 -290.71225 -338.99 0.00 -157.38 4.91687 3.85538 0.00000
2021.49 -1.62522 -1.62522 -269.06281 -332.04 0.00 -157.38 4.91687 3.98026 0.00000
2024.93 -1.11413 -1.11413 -249.81985 -323.50 0.00 -157.38 4.91687 4.09045 0.00000
2026.86 -0.48293 -0.48293 -473.36230 -327.98 0.00 -157.38 1.04188 9.37878 0.00000
2029.50 -0.67828 -0.67828 -435.65985 -342.87 0.00 -157.38 1.04188 8.39797 0.00000
2031.49 -0.86092 -0.86092 -402.88641 -351.86 0.00 -157.38 1.04188 7.53255 0.00000
2034.93 -1.15991 -1.15991 -380.58459 -356.55 0.00 -157.38 1.04188 6.76894 0.00000
2036.86 -1.52383 -1.52383 -837.41760 -386.25 0.00 -157.38 3.10437 15.92237 0.00000
2039.48 -1.58312 -1.58312 -767.87952 -435.24 0.00 -157.38 3.10437 14.41437 0.00000
2041.50 -1.63997 -1.63997 -706.73993 -470.77 0.00 -157.38 3.10437 13.08378 0.00000
2044.93 -1.50294 -1.50294 -643.80786 -494.83 0.00 -157.38 3.10437 11.90973 0.00000
2046.86 -1.23328 -1.23328 -916.07812 -528.38 0.00 -157.38 -0.39562 17.85168 0.00000
2049.51 -1.44807 -1.44807 -823.34436 -568.53 0.00 -157.38 -0.39562 15.70494 0.00000
2051.52 -1.64911 -1.64911 -742.07355 -593.73 0.00 -157.38 -0.39562 13.81075 0.00000
2054.93 -1.78703 -1.78703 -668.46936 -606.85 0.00 -157.38 -0.39562 12.13941 0.00000
2056.89 -1.91470 -1.91470 -589.51715 -609.46 0.00 -157.38 -0.45812 10.36691 0.00000
2059.48 -1.16784 -1.16784 -492.53824 -601.41 0.00 -157.38 -0.45812 9.09337 0.00000
2061.49 -0.47668 -0.47668 -405.42456 -583.47 0.00 -157.38 -0.45812 7.96967 0.00000
2064.93 -0.19188 -0.19188 -344.16226 -558.92 0.00 -157.38 -0.45812 6.97816 0.00000
2066.86 0.21433 0.21433 -617.60864 -549.74 0.00 -157.38 -3.95813 13.08118 0.00000
2069.51 0.14246 0.14246 -524.83685 -552.27 0.00 -157.38 -3.95813 11.07656 0.00000
2071.49 0.07429 0.07429 -443.20703 -544.24 0.00 -157.38 -3.95813 9.30777 0.00000
2074.93 -0.09147 -0.09147 -376.25034 -528.42 0.00 -157.38 -3.95813 7.74708 0.00000
2076.87 -0.26939 -0.26939 -447.33774 -514.70 0.00 -157.38 -3.39563 9.05014 0.00000
2079.48 -0.07597 -0.07597 -367.77142 -502.09 0.00 -157.38 -3.39563 7.58594 0.00000
2081.50 0.10222 0.10222 -297.20490 -482.14 0.00 -157.38 -3.39563 6.29399 0.00000
2084.93 0.75461 0.75461 -211.17229 -455.32 0.00 -157.38 -3.39563 5.15404 0.00000
2086.88 1.52581 1.52581 -332.16550 -433.71 0.00 -157.38 -7.45813 8.44592 0.00000
2089.48 1.92650 1.92650 -223.12115 -415.35 0.00 -157.38 -7.45813 6.57486 0.00000
2091.49 2.29622 2.29622 -126.13005 -387.03 0.00 -157.38 -7.45813 4.92393 0.00000
2094.94 2.08434 2.08434 -66.37825 -352.82 0.00 -157.38 -7.45813 3.46722 0.00000
2096.86 1.87266 1.87266 -100.60725 -321.14 0.00 -157.38 -7.08313 3.96865 0.00000
2099.51 1.66951 1.66951 -47.94859 -292.09 0.00 -153.24 -7.08313 2.66844 0.00000
2101.49 1.48112 1.48112 -1.92366 -260.66 0.00 -136.75 -7.08313 1.52120 0.00000
2104.94 2.23911 2.23911 83.04877 -225.23 0.00 -118.16 -7.08313 0.50892 0.00000
2106.89 3.11931 3.11931 19.05679 -192.72 0.00 -101.10 -11.39563 2.72230 0.00000
2109.49 3.00915 3.00915 93.49319 -163.43 0.00 -85.74 -11.39563 1.06137 0.00000
2111.50 2.90772 2.90772 158.96979 -129.35 0.00 -67.86 -11.39563 -0.40415 0.00000
2114.93 2.83041 2.83041 217.32843 -92.00 0.00 -48.26 -11.39563 -1.69726 0.00000
2116.88 2.74887 2.74887 211.00479 -55.98 0.00 -29.37 -11.14563 -1.64706 0.00000
2119.48 3.58741 3.58741 304.89359 -19.05 0.00 -9.99 -11.14563 -2.76454 0.00000
2121.50 4.36614 4.36614 389.60056 24.05 0.00 12.62 -11.14563 -3.75054 0.00000
2124.93 5.08817 5.08817 466.01834 71.55 0.00 37.54 -11.14563 -4.62055 0.00000
2126.87 5.96973 5.96973 581.88959 124.77 0.00 65.46 -16.27062 -6.15297 0.00000
2129.49 6.78141 6.78141 677.98517 184.20 0.00 96.64 -16.27062 -7.34328 0.00000
2131.51 7.53741 7.53741 764.68579 247.40 0.00 129.79 -16.27062 -8.39355 0.00000
2134.92 7.33899 7.33899 799.64368 310.31 0.00 157.38 -16.27062 -9.32025 0.00000
2136.87 7.09655 7.09655 484.19641 349.32 0.00 157.38 -14.77063 -2.99088 0.00000
2139.48 6.85742 6.85742 539.23840 368.43 0.00 157.38 -14.77063 -4.37672 0.00000
2141.49 6.63851 6.63851 587.42554 391.36 0.00 157.38 -14.77063 -5.59952 0.00000
2144.93 7.35724 7.35724 673.71362 419.50 0.00 157.38 -14.77063 -6.67846 0.00000
2146.86 6.13249 6.13249 668.74268 449.12 0.00 157.38 -19.77062 -7.79965 0.00000
2149.48 6.57784 6.57784 757.71973 480.19 0.00 157.38 -19.77062 -9.20799 0.00000
2151.51 6.99044 6.99044 837.17157 517.51 0.00 157.38 -19.77062 -10.45064 0.00000
2154.93 6.98602 6.98602 889.58972 558.20 0.00 157.38 -19.77062 -11.54710 0.00000
2156.86 6.93586 6.93586 662.03162 583.80 0.00 157.38 -18.58312 -6.85647 0.00000
2159.48 7.43640 7.43640 752.27856 598.32 0.00 157.38 -18.58312 -8.23607 0.00000
2161.49 7.89474 7.89474 832.70874 621.16 0.00 157.38 -18.58312 -9.45336 0.00000
2164.94 8.69712 8.69712 922.77905 651.35 0.00 157.38 -18.58312 -10.52744 0.00000
2166.88 -3.27460 -3.27460 44.39465 631.61 0.00 157.38 -22.02062 -4.19949 0.00000
2169.48 -2.19908 -2.19908 196.65628 571.48 0.00 157.38 -22.02062 -6.29609 0.00000
2171.50 -1.20688 -1.20688 333.07901 535.41 0.00 157.38 -22.02062 -8.14603 0.00000
2174.93 -0.44081 -0.44081 448.20071 518.38 0.00 157.38 -22.02062 -9.77832 0.00000
2176.86 0.18676 0.18676 104.33890 489.89 0.00 157.38 -20.08312 -1.98697 0.00000
2179.48 1.61695 1.61695 275.17776 454.58 0.00 157.38 -20.08312 -4.11592 0.00000
2181.50 2.94344 2.94344 429.01666 442.53 0.00 157.38 -20.08312 -5.99441 0.00000
2184.93 3.79359 3.79359 549.38354 448.02 0.00 157.38 -20.08312 -7.65190 0.00000
2186.88 4.70673 4.70673 314.18143 446.11 0.00 157.38 -23.52062 -1.83871 0.00000
2189.47 5.03261 5.03261 452.26227 438.71 0.00 157.38 -23.52062 -4.38952 0.00000
2191.49 5.33648 5.33648 574.88196 447.52 0.00 157.38 -23.52062 -6.64023 0.00000
2194.93 6.50208 6.50208 726.15479 471.40 0.00 157.38 -23.52062 -8.62614 0.00000
2196.87 7.55168 7.55168 674.82147 498.35 0.00 157.38 -22.70812 -6.50710 0.00000
2199.48 8.50861 8.50861 812.24176 527.20 0.00 157.38 -22.70812 -8.41309 0.00000
2201.50 9.39620 9.39620 935.57043 567.99 0.00 157.38 -22.70812 -10.09485 0.00000
2204.93 10.00000 10.00000 1035.78003 617.13 0.00 157.38 -22.70812 -11.57875 0.00000
2206.88 10.00000 10.00000 1112.92200 670.92 0.00 157.38 -22.77062 -13.18587 0.00000
2209.48 10.00000 10.00000 1167.04724 726.10 0.00 157.38 -22.77062 -14.31348 0.00000
2211.49 10.00000 10.00000 1214.80481 780.79 0.00 157.38 -22.77062 -15.30843 0.00000
2214.93 -9.79426 -9.79426 306.81903 778.44 0.00 157.38 -22.77062 -16.18633 0.00000
2216.89 -7.64559 -7.64559 532.90167 736.25 0.00 157.38 -23.14562 -18.74770 0.00000
2219.48 -5.91451 -5.91451 640.82837 718.68 0.00 157.38 -23.14562 -19.26510 0.00000
2221.49 -4.31972 -4.31972 739.29102 715.31 0.00 157.38 -23.14562 -19.72162 0.00000
2224.93 -2.74226 -2.74226 834.34436 723.72 0.00 157.38 -23.14562 -20.12444 0.00000
2226.86 -1.35995 -1.35995 503.22610 717.26 0.00 157.38 -21.33312 -11.84383 0.00000
2229.49 -0.60957 -0.60957 592.83044 697.35 0.00 157.38 -21.33312 -12.96021 0.00000
2231.50 0.08280 0.08280 673.34607 689.79 0.00 157.38 -21.33312 -13.94524 0.00000
2234.93 1.53180 1.53180 784.61774 694.40 0.00 157.38 -21.33312 -14.81440 0.00000
2236.89 2.89060 2.89060 972.41583 716.06 0.00 157.38 -21.70812 -17.36806 0.00000
2239.48 3.61705 3.61705 1031.79333 749.71 0.00 157.38 -21.70812 -17.87865 0.00000
2241.50 4.28853 4.28853 1085.64929 786.07 0.00 157.38 -21.70812 -18.32916 0.00000
2244.93 5.47081 5.47081 1161.47949 825.77 0.00 157.38 -21.70812 -18.72668 0.00000
2246.88 6.51773 6.51773 942.68469 852.40 0.00 157.38 -20.45812 -13.12154 0.00000
2249.48 7.07205 7.07205 1010.72180 867.02 0.00 157.38 -20.45812 -13.98466 0.00000
2251.49 7.58367 7.58367 1071.83521 887.52 0.00 157.38 -20.45812 -14.74623 0.00000
2254.93 8.23347 8.23347 1135.28052 912.94 0.00 157.38 -20.45812 -15.41821 0.00000
2256.87 8.80564 8.80564 1019.67566 932.30 0.00 157.38 -19.70812 -12.43760 0.00000
2259.48 9.38306 9.38306 1088.44812 946.62 0.00 157.38 -19.70812 -13.29295 0.00000
2261.49 9.91626 9.91626 1150.26807 966.94 0.00 157.38 -19.70812 -14.04766 0.00000
2264.94 10.00000 10.00000 1186.25244 990.63 0.00 157.38 -19.70812 -14.71359 0.00000
2266.86 -4.80602 -4.80602 146.41479 952.47 0.00 157.38 -18.14562 -7.85632 0.00000
2269.51 -3.61529 -3.61529 261.67355 864.42 0.00 157.38 -18.14562 -9.06683 0.00000
2271.49 -2.51856 -2.51856 365.58463 799.62 0.00 157.38 -18.14562 -10.13491 0.00000
2274.93 -1.02155 -1.02155 482.67801 755.45 0.00 157.38 -18.14562 -11.07734 0.00000
2276.86 0.30676 0.30676 286.17490 711.80 0.00 157.38 -16.83312 -5.65522 0.00000
2279.50 1.55222 1.55222 409.07886 668.96 0.00 157.38 -16.83312 -6.97026 0.00000
2281.49 2.70653 2.70653 520.18201 644.92 0.00 157.38 -16.83312 -8.13059 0.00000
2284.93 2.99537 2.99537 583.18964 633.95 0.00 157.38 -16.83312 -9.15441 0.00000
2286.86 3.21368 3.21368 365.44254 615.17 0.00 157.38 -15.64563 -4.39970 0.00000
2289.48 4.07520 4.07520 470.30145 591.96 0.00 157.38 -15.64563 -5.72275 0.00000
2291.50 4.87309 4.87309 564.63501 583.19 0.00 157.38 -15.64563 -6.89014 0.00000
2294.93 5.52051 5.52051 645.15295 585.75 0.00 157.38 -15.64563 -7.92018 0.00000
2296.88 6.02905 6.02905 212.89499 567.31 0.00 157.38 -13.45813 1.59374 0.00000
2299.48 6.43785 6.43785 317.51569 531.77 0.00 157.38 -13.45813 -0.17706 0.00000
2301.51 6.81053 6.81053 410.40326 512.03 0.00 157.38 -13.45813 -1.73954 0.00000
2304.93 7.25977 7.25977 498.14236 505.23 0.00 157.38 -13.45813 -3.11819 0.00000
2306.86 7.60749 7.60749 187.28174 486.11 0.00 157.38 -11.77063 3.70579 0.00000
2309.48 7.94238 7.94238 290.75253 457.04 0.00 157.38 -11.77063 1.88504 0.00000
2311.49 8.25248 8.25248 382.75140 442.89 0.00 157.38 -11.77063 0.27849 0.00000
2314.93 8.78325 8.78325 476.27014 441.32 0.00 157.38 -11.77063 -1.13905 0.00000
2316.87 9.19676 9.19676 98.74402 423.22 0.00 157.38 -9.77063 7.13959 0.00000
2319.49 8.93771 8.93771 181.80267 389.93 0.00 157.38 -9.77063 5.15015 0.00000
2321.52 8.69197 8.69197 254.26538 369.71 0.00 157.38 -9.77063 3.39477 0.00000
2324.93 8.92287 8.92287 339.69415 361.15 0.00 157.38 -9.77063 1.84591 0.00000
2326.88 9.01287 9.01287 -290.79813 321.54 0.00 157.38 -6.70813 15.07117 0.00000
2329.48 8.80671 8.80671 -177.70496 256.15 0.00 134.38 -6.70813 12.50890 0.00000
2331.51 8.61744 8.61744 -78.27054 210.96 0.00 110.67 -6.70813 10.24808 0.00000
2334.93 8.19446 8.19446 -2.82111 181.37 0.00 95.15 -6.70813 8.25323 0.00000
2336.88 7.72072 7.72072 -398.48483 136.43 0.00 71.57 -4.70813 16.02249 0.00000
2339.48 7.92001 7.92001 -271.85205 80.95 0.00 42.47 -4.70813 13.58359 0.00000
2341.49 8.10604 8.10604 -159.62782 46.04 0.00 24.15 -4.70813 11.43162 0.00000
2344.94 -4.65319 -4.65319 -680.92920 -8.82 0.00 -4.63 -4.70813 9.53283 0.00000
2346.88 -3.58732 -3.58732 -1021.05371 -107.90 0.00 -56.61 -2.64563 17.68463 0.00000
2349.48 -2.86849 -2.86849 -871.74377 -206.55 0.00 -108.36 -2.64563 15.29284 0.00000
2351.50 -2.20582 -2.20582 -738.63593 -276.97 0.00 -145.31 -2.64563 13.18243 0.00000
2354.93 -1.47570 -1.47570 -614.20813 -323.97 0.00 -157.38 -2.64563 11.32031 0.00000
2356.60 -0.80155 -0.80155 -502.98273 -351.57 0.00 -157.38 -2.64563 9.67726 0.00000
2359.85 -0.19516 -0.19516 -861.69983 -390.49 0.00 -157.38 -0.64562 17.75692 0.00000
2361.49 0.36571 0.36571 -730.85773 -438.23 0.00 -157.38 -0.64562 15.59191 0.00000
2364.93 1.00233 1.00233 -608.60571 -465.46 0.00 -157.38 -0.64562 13.68161 0.00000
2366.49 -4.44502 -4.44502 -789.17175 -492.92 0.00 -157.38 -0.64562 11.99606 0.00000
2369.85 -4.42961 -4.42961 -1174.45520 -550.44 0.00 -157.38 1.35438 20.03821 0.00000
2371.48 -4.41986 -4.41986 -1068.47876 -617.62 0.00 -157.38 1.35438 17.84011 0.00000
2374.93 -4.32775 -4.32775 -970.96106 -664.93 0.00 -157.38 1.35438 15.90061 0.00000
2376.49 -4.24554 -4.24554 -884.87183 -695.87 0.00 -157.38 1.35438 14.18929 0.00000
2379.85 -3.54837 -3.54837 -415.40158 -690.49 0.00 -157.38 4.72937 5.10583 0.00000
2381.49 -2.90476 -2.90476 -382.38235 -656.18 0.00 -157.38 4.72937 5.06153 0.00000
2384.94 -3.11022 -3.11022 -390.36832 -624.44 0.00 -157.38 4.72937 5.02246 0.00000
2386.49 -3.30455 -3.30455 -398.04108 -597.35 0.00 -157.38 4.72937 4.98797 0.00000
2389.86 -3.25111 -3.25111 -322.54486 -569.46 0.00 -157.38 4.41687 3.46858 0.00000
2391.49 -3.20281 -3.20281 -325.58136 -540.59 0.00 -157.38 4.41687 3.58014 0.00000
2394.93 -3.18980 -3.18980 -329.68213 -515.54 0.00 -157.38 4.41687 3.67858 0.00000
2396.49 -3.18023 -3.18023 -333.39166 -493.89 0.00 -157.38 4.41687 3.76543 0.00000
2399.86 -2.66445 -2.66445 -855.48962 -505.72 0.00 -157.38 6.79187 15.15825 0.00000
2401.49 -2.18868 -2.18868 -785.40729 -542.75 0.00 -157.38 6.79187 14.17397 0.00000
2404.93 -2.54821 -2.54821 -760.97729 -569.86 0.00 -157.38 6.79187 13.30549 0.00000
2406.51 -2.88020 -2.88020 -740.13019 -591.12 0.00 -157.38 6.79187 12.53918 0.00000
2409.86 -3.09144 -3.09144 -703.52032 -606.49 0.00 -157.38 6.72937 11.56523 0.00000
2411.49 -3.28994 -3.28994 -685.73956 -616.86 0.00 -157.38 6.72937 10.99630 0.00000
2414.93 -6.12104 -6.12104 -797.53693 -631.54 0.00 -157.38 6.72937 10.49431 0.00000
2416.49 -6.12750 -6.12750 -776.58618 -649.84 0.00 -157.38 6.72937 10.05138 0.00000
2419.85 -6.12542 -6.12542 -1100.78564 -683.82 0.00 -157.38 8.22937 16.80761 0.00000
2421.49 -6.12718 -6.12718 -1052.42798 -730.03 0.00 -157.38 8.22937 15.79840 0.00000
2424.93 -5.92039 -5.92039 -999.75928 -764.86 0.00 -157.38 8.22937 14.90792 0.00000
2426.53 -5.72749 -5.72749 -952.78583 -789.73 0.00 -157.38 8.22937 14.12221 0.00000
2429.86 -5.10080 -5.10080 -532.07428 -784.17 0.00 -157.38 6.66687 5.98408 0.00000
2431.49 -4.52587 -4.52587 -508.33347 -753.11 0.00 -157.38 6.66687 6.06441 0.00000
2434.94 -4.23436 -4.23436 -497.74265 -723.69 0.00 -157.38 6.66687 6.13528 0.00000
2436.52 -3.96285 -3.96285 -487.71194 -696.52 0.00 -157.38 6.66687 6.19781 0.00000
2439.85 -3.41366 -3.41366 -492.58746 -672.24 0.00 -157.38 6.79187 6.84858 0.00000
2441.49 -2.90658 -2.90658 -467.92731 -649.66 0.00 -157.38 6.79187 6.84191 0.00000
2444.93 -2.59916 -2.59916 -452.88904 -627.39 0.00 -157.38 6.79187 6.83602 0.00000
2446.49 -2.31530 -2.31530 -439.01410 -606.04 0.00 -157.38 6.79187 6.83083 0.00000
2449.85 -2.80184 -2.80184 -505.03043 -590.28 0.00 -157.38 6.97937 7.71963 0.00000
2451.49 -3.25555 -3.25555 -522.62823 -581.28 0.00 -157.38 6.97937 7.63253 0.00000
2454.93 -3.64490 -3.64490 -537.62830 -575.27 0.00 -157.38 6.97937 7.55569 0.00000
2456.49 -4.00912 -4.00912 -551.85620 -571.67 0.00 -157.38 6.97937 7.48788 0.00000
2459.85 -3.44821 -3.44821 -493.47263 -565.91 0.00 -157.38 6.85437 6.83247 0.00000
2461.49 -2.93067 -2.93067 -468.75430 -555.93 0.00 -157.38 6.85437 6.83504 0.00000
2464.93 -3.92991 -3.92991 -516.82690 -548.50 0.00 -157.38 6.85437 6.83731 0.00000
2466.50 -3.65859 -3.65859 -503.89966 -544.02 0.00 -157.38 6.85437 6.83932 0.00000
2469.85 -3.68870 -3.68870 -176.66524 -520.05 0.00 -157.38 5.41687 -0.00817 0.00000
2471.51 -3.71896 -3.71896 -208.75314 -481.54 0.00 -157.38 5.41687 0.63006 0.00000
2474.93 -3.76752 -3.76752 -238.11557 -451.17 0.00 -157.38 5.41687 1.19322 0.00000
2476.50 -3.80936 -3.80936 -263.97473 -427.63 0.00 -157.38 5.41687 1.69011 0.00000
2479.85 -3.56615 -3.56615 -216.16956 -405.56 0.00 -157.38 5.16687 0.93738 0.00000
2481.50 -3.34239 -3.34239 -229.31310 -384.05 0.00 -157.38 5.16687 1.43496 0.00000
2484.93 -3.24611 -3.24611 -245.76559 -366.82 0.00 -157.38 5.16687 1.87401 0.00000
2486.49 -3.15760 -3.15760 -260.11185 -353.42 0.00 -157.38 5.16687 2.26140 0.00000
2489.85 -3.47297 -3.47297 -105.83343 -333.37 0.00 -157.38 4.35437 -1.26810 0.00000
2491.49 -3.76784 -3.76784 -151.73763 -309.30 0.00 -157.38 4.35437 -0.60664 0.00000
2494.93 -3.89730 -3.89730 -185.96674 -292.78 0.00 -153.59 4.35437 -0.02299 0.00000
2496.51 -4.01976 -4.01976 -216.56427 -282.01 0.00 -147.95 4.35437 0.49199 0.00000
2499.86 -3.35692 -3.35692 7.85316 -261.11 0.00 -136.98 3.41687 -3.52052 0.00000
2501.49 -2.74440 -2.74440 -1.92183 -230.04 0.00 -120.68 3.41687 -2.70436 0.00000
2504.93 -2.64163 -2.64163 -31.55593 -204.95 0.00 -107.52 3.41687 -1.98422 0.00000
2506.50 -2.54719 -2.54719 -57.52281 -186.08 0.00 -97.62 3.41687 -1.34879 0.00000
2509.85 -2.71779 -2.71779 421.96448 -142.75 0.00 -74.89 1.16688 -11.50871 0.00000
2511.49 -2.87794 -2.87794 342.69724 -80.97 0.00 -42.48 1.16688 -10.01747 0.00000
2514.94 -2.95387 -2.95387 275.89392 -35.06 0.00 -18.39 1.16688 -8.70166 0.00000
2516.52 -3.02655 -3.02655 216.67744 -1.96 0.00 -1.03 1.16688 -7.54066 0.00000
2519.85 -2.47164 -2.47164 165.55286 20.76 0.00 10.89 1.29188 -5.92066 0.00000
2521.49 -1.95822 -1.95822 149.46729 36.84 0.00 19.33 1.29188 -5.07212 0.00000
2524.93 -1.48415 -1.48415 136.28488 49.32 0.00 25.87 1.29188 -4.32342 0.00000
2526.49 -1.04515 -1.04515 125.64709 58.92 0.00 30.91 1.29188 -3.66280 0.00000
2529.85 -1.37276 -1.37276 610.82452 95.31 0.00 50.00 -1.02062 -14.09827 0.00000
2531.49 -1.67769 -1.67769 522.33771 150.76 0.00 79.09 -1.02062 -12.55973 0.00000
2534.93 -1.93657 -1.93657 444.74957 189.91 0.00 99.63 -1.02062 -11.20218 0.00000
2536.49 -2.17786 -2.17786 375.67157 215.83 0.00 113.23 -1.02062 -10.00435 0.00000
2539.85 -1.49866 -1.49866 529.07117 243.65 0.00 127.83 -1.77062 -12.52097 0.00000
2541.49 -0.86953 -0.86953 498.56116 275.44 0.00 144.50 -1.77062 -11.25623 0.00000
2544.94 -1.18377 -1.18377 429.91211 297.65 0.00 156.15 -1.77062 -10.14027 0.00000
2546.49 -1.47606 -1.47606 368.61816 309.60 0.00 157.38 -1.77062 -9.15561 0.00000
2549.85 -1.72933 -1.72933 400.52261 318.42 0.00 157.38 -2.14563 -10.07355 0.00000
2551.49 -1.96561 -1.96561 344.41144 324.78 0.00 157.38 -2.14563 -9.14085 0.00000
2554.93 -2.16084 -2.16084 295.53815 324.22 0.00 157.38 -2.14563 -8.31788 0.00000
2556.51 -2.34403 -2.34403 251.88956 318.28 0.00 157.38 -2.14563 -7.59173 0.00000
2559.86 -1.70663 -1.70663 666.25977 334.84 0.00 157.38 -3.95813 -15.58704 0.00000
2561.51 -1.11758 -1.11758 628.86505 371.63 0.00 157.38 -3.95813 -14.21893 0.00000
2564.95 -0.44419 -0.44419 603.24402 400.39 0.00 157.38 -3.95813 -13.01177 0.00000
2566.52 0.18016 0.18016 582.08594 423.01 0.00 157.38 -3.95813 -11.94664 0.00000
2569.86 -0.12960 -0.12960 536.40039 439.04 0.00 157.38 -4.02063 -11.30460 0.00000
2571.49 -0.41707 -0.41707 481.46823 447.26 0.00 157.38 -4.02063 -10.44766 0.00000
2574.93 0.18363 0.18363 474.00781 450.84 0.00 157.38 -4.02063 -9.69154 0.00000
2576.51 0.74106 0.74106 468.74066 453.26 0.00 157.38 -4.02063 -9.02437 0.00000
2579.86 1.33442 1.33442 511.84772 457.62 0.00 157.38 -4.20813 -9.32907 0.00000
2581.49 1.88564 1.88564 509.38770 463.85 0.00 157.38 -4.20813 -8.72661 0.00000
2584.93 1.56766 1.56766 468.60846 466.81 0.00 157.38 -4.20813 -8.19502 0.00000
2586.50 1.27320 1.27320 431.96039 464.87 0.00 157.38 -4.20813 -7.72597 0.00000
2589.85 1.09791 1.09791 203.56316 447.56 0.00 157.38 -3.33313 -3.14299 0.00000
2591.49 0.93489 0.93489 196.81178 418.46 0.00 157.38 -3.33313 -3.16536 0.00000
2594.93 1.24359 1.24359 212.57698 393.31 0.00 157.38 -3.33313 -3.18509 0.00000
2596.50 1.52778 1.52778 227.05367 372.90 0.00 157.38 -3.33313 -3.20251 0.00000
2599.85 1.84710 1.84710 471.82462 370.14 0.00 157.38 -4.33313 -7.98258 0.00000
2601.49 2.14329 2.14329 465.43295 381.72 0.00 157.38 -4.33313 -7.55323 0.00000
2604.93 2.36626 2.36626 457.95126 391.13 0.00 157.38 -4.33313 -7.17439 0.00000
2606.50 2.57344 2.57344 451.85120 398.63 0.00 157.38 -4.33313 -6.84013 0.00000
2609.85 2.33558 2.33558 240.45285 392.46 0.00 157.38 -3.52063 -2.67386 0.00000
2611.49 2.11569 2.11569 234.68024 374.24 0.00 157.38 -3.52063 -2.77348 0.00000
2614.93 2.48256 2.48256 256.50885 359.10 0.00 157.38 -3.52063 -2.86138 0.00000
2616.49 2.82412 2.82412 276.62662 348.22 0.00 157.38 -3.52063 -2.93893 0.00000
2619.85 3.03420 3.03420 261.40680 338.90 0.00 157.38 -3.39563 -2.41178 0.00000
2621.49 3.23044 3.23044 276.38217 330.66 0.00 157.38 -3.39563 -2.52752 0.00000
2624.93 2.80983 2.80983 261.09528 323.38 0.00 157.38 -3.39563 -2.62965 0.00000
2626.51 2.42011 2.42011 246.71396 315.20 0.00 157.38 -3.39563 -2.71976 0.00000
2629.85 1.94982 1.94982 -143.69055 284.18 0.00 149.09 -1.77062 4.94337 0.00000
2631.49 1.51401 1.51401 -126.69507 234.84 0.00 123.20 -1.77062 4.15349 0.00000
2634.93 1.26392 1.26392 -105.24545 193.57 0.00 101.55 -1.77062 3.45653 0.00000
2636.52 1.03158 1.03158 -86.87995 159.50 0.00 83.67 -1.77062 2.84158 0.00000
2639.87 1.48668 1.48668 -81.87179 130.81 0.00 68.62 -1.58312 3.19235 0.00000
2641.49 1.90971 1.90971 -34.59943 108.57 0.00 56.96 -1.58312 2.63053 0.00000
2644.93 1.65125 1.65125 -23.21061 92.39 0.00 48.47 -1.58312 2.13480 0.00000
2646.51 1.41192 1.41192 -13.70293 79.35 0.00 41.63 -1.58312 1.69740 0.00000
2649.85 1.52113 1.52113 -347.28857 48.78 0.00 25.59 -0.02062 8.75631 0.00000
2651.50 1.62282 1.62282 -292.84375 5.39 0.00 2.83 -0.02062 7.72373 0.00000
2654.95 1.95136 1.95136 -233.34114 -26.20 0.00 -13.74 -0.02062 6.81263 0.00000
2656.50 2.25700 2.25700 -180.08228 -47.44 0.00 -24.89 -0.02062 6.00872 0.00000
2659.86 2.04170 2.04170 -227.83929 -65.85 0.00 -34.55 0.29188 6.78835 0.00000
2661.49 1.84203 1.84203 -200.73727 -83.31 0.00 -43.71 0.29188 6.02406 0.00000
2664.93 1.46140 1.46140 -186.63776 -96.30 0.00 -50.52 0.29188 5.34969 0.00000
2666.49 1.10883 1.10883 -174.99918 -106.24 0.00 -55.74 0.29188 4.75465 0.00000
2669.86 1.42191 1.42191 -677.94617 -143.92 0.00 -75.50 2.66687 15.54579 0.00000
2671.49 1.71299 1.71299 -591.24664 -201.64 0.00 -105.79 2.66687 14.03062 0.00000
2674.93 1.93438 1.93438 -516.44763 -243.08 0.00 -127.52 2.66687 12.69371 0.00000
2676.52 2.14070 2.14070 -449.92245 -271.33 0.00 -142.34 2.66687 11.51408 0.00000
2679.89 2.20156 2.20156 -96.86359 -271.57 0.00 -142.47 1.35438 4.21955 0.00000
2681.50 2.25961 2.25961 -77.89744 -249.90 0.00 -131.10 1.35438 3.88247 0.00000
2684.93 1.61766 1.61766 -94.43447 -230.64 0.00 -121.00 1.35438 3.58505 0.00000
2686.50 1.02276 1.02276 -110.39323 -215.55 0.00 -113.08 1.35438 3.32262 0.00000
2689.86 0.36220 0.36220 218.24739 -183.85 0.00 -96.45 4.79187 -4.18462 0.00000
2691.50 -0.25021 -0.25021 138.16083 -141.25 0.00 -74.10 4.79187 -3.12856 0.00000
2694.93 0.08256 0.08256 109.40652 -110.07 0.00 -57.75 4.79187 -2.19675 0.00000
2696.51 0.39090 0.39090 84.74215 -85.70 0.00 -44.96 4.79187 -1.37456 0.00000
2699.85 -0.19318 -0.19318 364.94278 -49.17 0.00 -25.79 3.29187 -7.79616 0.00000
2701.49 -0.73541 -0.73541 276.30127 -5.66 0.00 -2.97 3.29187 -6.49168 0.00000
2704.93 -1.16804 -1.16804 200.28647 23.04 0.00 12.09 3.29187 -5.34068 0.00000
2706.49 -1.56887 -1.56887 132.29834 39.89 0.00 20.93 3.29187 -4.32509 0.00000
2709.85 -1.23151 -1.23151 -251.87457 28.16 0.00 14.78 4.85437 4.01588 0.00000
2711.49 -0.91929 -0.91929 -241.62296 -4.18 0.00 -2.19 4.85437 4.11452 0.00000
2714.93 -0.54591 -0.54591 -227.87865 -31.30 0.00 -16.42 4.85437 4.20156 0.00000
2716.52 -0.20014 -0.20014 -214.96796 -53.67 0.00 -28.16 4.85437 4.27836 0.00000
2719.86 -0.34621 -0.34621 -10.82037 -60.64 0.00 -31.81 3.91687 -0.12079 0.00000
2721.49 -0.48164 -0.48164 -40.12160 -56.50 0.00 -29.64 3.91687 0.35423 0.00000
2724.93 -0.85249 -0.85249 -78.04091 -56.81 0.00 -29.80 3.91687 0.77337 0.00000
2726.52 -1.19674 -1.19674 -112.31642 -61.32 0.00 -32.17 3.91687 1.14319 0.00000
2729.85 -0.94117 -0.94117 -530.24182 -91.90 0.00 -48.21 5.72937 10.10553 0.00000
2731.49 -0.70264 -0.70264 -494.07977 -141.35 0.00 -74.15 5.72937 9.59069 0.00000
2734.93 -1.09281 -1.09281 -491.00238 -182.66 0.00 -95.83 5.72937 9.13641 0.00000
2736.49 -1.45454 -1.45454 -489.12604 -218.83 0.00 -114.80 5.72937 8.73558 0.00000
2739.85 -1.89764 -1.89764 -321.88876 -240.79 0.00 -126.32 4.97937 4.80838 0.00000
2741.50 -2.31028 -2.31028 -342.66144 -251.55 0.00 -131.97 4.97937 4.82850 0.00000
2744.94 -2.69848 -2.69848 -362.14664 -263.42 0.00 -138.19 4.97937 4.84625 0.00000
2746.49 -3.06024 -3.06024 -380.26328 -276.10 0.00 -144.85 4.97937 4.86191 0.00000
2749.85 -3.07990 -3.07990 -367.57617 -287.61 0.00 -150.88 4.91687 4.57793 0.00000
2751.50 -3.09978 -3.09978 -370.44403 -297.18 0.00 -155.91 4.91687 4.61781 0.00000
2754.93 -2.63541 -2.63541 -349.84305 -304.59 0.00 -157.38 4.91687 4.65299 0.00000
2756.51 -2.20611 -2.20611 -330.72681 -308.79 0.00 -157.38 4.91687 4.68403 0.00000
2759.85 -2.07335 -2.07335 -511.49255 -322.00 0.00 -157.38 5.72937 8.58275 0.00000
2761.50 -1.95044 -1.95044 -489.47980 -343.00 0.00 -157.38 5.72937 8.24705 0.00000
2764.93 -2.17096 -2.17096 -485.84683 -360.02 0.00 -157.38 5.72937 7.95085 0.00000
2766.49 -2.37437 -2.37437 -483.06564 -374.66 0.00 -157.38 5.72937 7.68950 0.00000
2769.86 -1.95553 -1.95553 -423.30420 -383.90 0.00 -157.38 5.60437 6.86331 0.00000
2771.49 -1.56828 -1.56828 -397.60693 -387.02 0.00 -157.38 5.60437 6.71520 0.00000
2774.93 -1.85510 -1.85510 -405.10117 -388.71 0.00 -157.38 5.60437 6.58451 0.00000
2776.50 -2.11944 -2.11944 -412.25488 -391.06 0.00 -157.38 5.60437 6.46920 0.00000
2779.86 -2.61317 -2.61317 -302.42267 -387.09 0.00 -157.38 5.04187 3.68731 0.00000
2781.49 -3.07249 -3.07249 -332.11935 -378.88 0.00 -157.38 5.04187 3.84666 0.00000
2784.93 -3.27212 -3.27212 -348.45108 -374.34 0.00 -157.38 5.04187 3.98728 0.00000
2786.52 -3.45749 -3.45749 -363.30408 -372.17 0.00 -157.38 5.04187 4.11135 0.00000
2789.86 -3.78080 -3.78080 -241.13644 -363.94 0.00 -157.38 4.41687 1.24288 0.00000
2791.49 -4.08260 -4.08260 -273.54666 -351.40 0.00 -157.38 4.41687 1.61629 0.00000
2794.93 -3.54519 -3.54519 -263.56558 -341.65 0.00 -157.38 4.41687 1.94576 0.00000
2796.52 -3.05020 -3.05020 -253.76060 -331.89 0.00 -157.38 4.41687 2.23648 0.00000
2799.86 -3.04414 -3.04414 -37.07685 -309.95 0.00 -157.38 3.41687 -2.27171 0.00000
2801.49 -3.03984 -3.03984 -68.99380 -279.72 0.00 -146.75 3.41687 -1.60247 0.00000
2804.93 -2.52744 -2.52744 -72.74311 -255.15 0.00 -133.86 3.41687 -1.01196 0.00000
2806.51 -2.05343 -2.05343 -75.00041 -233.83 0.00 -122.67 3.41687 -0.49092 0.00000
2809.85 -2.45865 -2.45865 140.77554 -202.45 0.00 -106.21 2.29187 -5.39147 0.00000
2811.49 -2.83651 -2.83651 79.24995 -165.69 0.00 -86.92 2.29187 -4.48755 0.00000
2814.93 -3.20025 -3.20025 23.50669 -140.15 0.00 -73.52 2.29187 -3.68997 0.00000
2816.52 -3.53930 -3.53930 -26.54748 -123.84 0.00 -64.97 2.29187 -2.98623 0.00000
2819.85 -3.13970 -3.13970 91.47446 -105.45 0.00 -55.32 1.72938 -5.04542 0.00000
2821.49 -2.76624 -2.76624 71.14309 -83.48 0.00 -43.80 1.72938 -4.24839 0.00000
2824.92 -2.97678 -2.97678 27.28029 -67.87 0.00 -35.61 1.72938 -3.54512 0.00000
2826.50 -3.17364 -3.17364 -11.95443 -58.98 0.00 -30.94 1.72938 -2.92459 0.00000
2829.85 -2.90123 -2.90123 460.84021 -25.64 0.00 -13.45 -0.39562 -12.50207 0.00000
2831.50 -2.64944 -2.64944 404.56030 28.28 0.00 14.84 -0.39562 -11.07778 0.00000
2834.93 -2.04619 -2.04619 373.19348 70.71 0.00 37.09 -0.39562 -9.82105 0.00000
2836.49 -1.48841 -1.48841 346.74106 104.74 0.00 54.95 -0.39562 -8.71218 0.00000
2839.85 -1.78891 -1.78891 414.00009 137.16 0.00 71.96 -0.95812 -10.41391 0.00000
2841.50 -2.06852 -2.06852 347.18140 165.80 0.00 86.98 -0.95812 -9.30146 0.00000
2844.93 -1.44743 -1.44743 329.87817 186.12 0.00 97.64 -0.95812 -8.31989 0.00000
2846.51 -0.87186 -0.87186 315.93332 202.22 0.00 106.09 -0.95812 -7.45380 0.00000
2849.85 -0.84961 -0.84961 551.90796 229.47 0.00 120.39 -2.14563 -12.34769 0.00000
2851.49 -0.83053 -0.83053 495.21194 264.07 0.00 138.54 -2.14563 -11.14745 0.00000
2854.93 -0.75677 -0.75677 447.91864 288.48 0.00 151.34 -2.14563 -10.08841 0.00000
2856.50 -0.68847 -0.68847 406.34390 304.80 0.00 157.38 -2.14563 -9.15396 0.00000
2859.87 -0.56070 -0.56070 573.01770 326.55 0.00 157.38 -3.02063 -12.49857 0.00000
2861.49 -0.44392 -0.44392 525.10028 352.72 0.00 157.38 -3.02063 -11.38351 0.00000
2864.93 -0.53385 -0.53385 473.55789 369.97 0.00 157.38 -3.02063 -10.39964 0.00000
2866.51 -0.61845 -0.61845 427.82748 379.47 0.00 157.38 -3.02063 -9.53152 0.00000
2869.85 -0.80523 -0.80523 582.21222 394.24 0.00 157.38 -3.89563 -12.93465 0.00000
2871.49 -0.97946 -0.97946 522.80518 412.86 0.00 157.38 -3.89563 -11.87123 0.00000
2874.93 -0.34199 -0.34199 508.36475 424.94 0.00 157.38 -3.89563 -10.93292 0.00000
2876.54 0.24899 0.24899 496.99191 434.09 0.00 157.38 -3.89563 -10.10500 0.00000
2879.86 0.24571 0.24571 490.35748 441.10 0.00 157.38 -4.02063 -9.97007 0.00000
2881.49 0.24263 0.24263 456.61267 444.91 0.00 157.38 -4.02063 -9.27014 0.00000
2884.94 0.64674 0.64674 446.36542 445.68 0.00 157.38 -4.02063 -8.65254 0.00000
2886.51 1.02162 1.02162 438.20297 445.28 0.00 157.38 -4.02063 -8.10761 0.00000
2889.85 1.16691 1.16691 579.33270 452.75 0.00 157.38 -4.70813 -10.90252 0.00000
2891.49 1.29976 1.29976 550.72919 465.96 0.00 157.38 -4.70813 -10.17377 0.00000
2894.93 1.77302 1.77302 542.58093 475.45 0.00 157.38 -4.70813 -9.53075 0.00000
2896.49 2.21339 2.21339 536.48480 482.99 0.00 157.38 -4.70813 -8.96338 0.00000
2899.85 1.91896 1.91896 312.49921 476.11 0.00 157.38 -3.89563 -4.59144 0.00000
2901.49 1.64675 1.64675 295.50381 455.86 0.00 157.38 -3.89563 -4.50957 0.00000
2904.93 1.22065 1.22065 271.58368 435.59 0.00 157.38 -3.89563 -4.43734 0.00000
2906.51 0.82603 0.82603 249.58267 415.00 0.00 157.38 -3.89563 -4.37361 0.00000
2909.85 0.57155 0.57155 34.55058 382.89 0.00 157.38 -3.02063 -0.14826 0.00000
2911.49 0.33912 0.33912 39.61474 342.21 0.00 157.38 -3.02063 -0.48618 0.00000
2914.93 0.75178 0.75178 73.73413 308.62 0.00 157.38 -3.02063 -0.78435 0.00000
2916.51 1.13513 1.13513 104.76363 282.81 0.00 148.37 -3.02063 -1.04744 0.00000
2919.85 0.77346 0.77346 227.19310 269.06 0.00 141.15 -3.58313 -3.95973 0.00000
2921.50 0.43795 0.43795 208.96173 263.06 0.00 138.01 -3.58313 -3.91542 0.00000
2924.93 0.10100 0.10100 190.91176 255.64 0.00 134.11 -3.58313 -3.87633 0.00000
2926.50 -0.21177 -0.21177 174.24283 247.04 0.00 129.60 -3.58313 -3.84183 0.00000
2929.86 0.34130 0.34130 -115.14109 221.46 0.00 116.18 -2.20813 2.74008 0.00000
2931.49 0.85472 0.85472 -62.55418 184.95 0.00 97.03 -2.20813 2.15794 0.00000
2934.93 1.32350 1.32350 -15.39740 158.60 0.00 83.21 -2.20813 1.64428 0.00000
2936.49 1.75942 1.75942 27.28159 140.64 0.00 73.78 -2.20813 1.19106 0.00000
2939.86 1.33720 1.33720 -102.43684 119.68 0.00 62.78 -1.64562 3.47130 0.00000
2941.50 0.94520 0.94520 -92.35748 94.14 0.00 49.39 -1.64562 2.86931 0.00000
2944.93 0.50685 0.50685 -87.90184 72.46 0.00 38.01 -1.64562 2.33814 0.00000
2946.50 0.10028 0.10028 -84.92078 53.77 0.00 28.21 -1.64562 1.86947 0.00000
2949.86 0.40901 0.40901 -536.25208 10.90 0.00 5.72 0.47938 11.58092 0.00000
2951.49 0.69601 0.69601 -459.78497 -48.97 0.00 -25.69 0.47938 10.27486 0.00000
2954.94 0.51257 0.51257 -413.27405 -94.56 0.00 -49.61 0.47938 9.12245 0.00000
2956.51 0.34247 0.34247 -372.63113 -129.67 0.00 -68.03 0.47938 8.10561 0.00000
2959.85 -0.06087 -0.06087 -391.80756 -159.38 0.00 -83.61 0.66688 8.10179 0.00000
2961.49 -0.43498 -0.43498 -367.77951 -185.31 0.00 -97.22 0.66688 7.22709 0.00000
2964.93 -0.40018 -0.40018 -329.06329 -204.50 0.00 -107.28 0.66688 6.45530 0.00000
2966.50 -0.36834 -0.36834 -294.84729 -217.14 0.00 -113.92 0.66688 5.77431 0.00000
2969.85 -0.35618 -0.35618 -465.53912 -236.33 0.00 -123.98 1.54188 9.34255 0.00000
2971.49 -0.34458 -0.34458 -420.93127 -260.67 0.00 -136.75 1.54188 8.42483 0.00000
2974.94 0.02444 0.02444 -364.34995 -276.19 0.00 -144.90 1.54188 7.61507 0.00000
2976.51 0.36708 0.36708 -313.60757 -283.58 0.00 -148.77 1.54188 6.90057 0.00000
2979.85 -0.03757 -0.03757 -531.47552 -299.93 0.00 -157.35 2.54187 11.03484 0.00000
2981.49 -0.41279 -0.41279 -501.52594 -325.41 0.00 -157.38 2.54187 10.03567 0.00000
2984.93 -0.45037 -0.45037 -461.01184 -343.74 0.00 -157.38 2.54187 9.15404 0.00000
2986.49 -0.48522 -0.48522 -425.34540 -355.44 0.00 -157.38 2.54187 8.37614 0.00000
2989.86 -0.63619 -0.63619 -642.64545 -376.45 0.00 -157.38 3.60437 12.75225 0.00000
2991.49 -0.77458 -0.77458 -597.62958 -405.12 0.00 -157.38 3.60437 11.67603 0.00000
2994.93 -0.94240 -0.94240 -560.10333 -425.56 0.00 -157.38 3.60437 10.72642 0.00000
2996.50 -1.09445 -1.09445 -527.18323 -439.45 0.00 -157.38 3.60437 9.88853 0.00000
2999.85 -1.66846 -1.66846 -647.89551 -456.87 0.00 -157.38 4.16687 11.82937 0.00000
3001.49 -2.20188 -2.20188 -630.22919 -478.31 0.00 -157.38 4.16687 10.92789 0.00000
3004.93 -1.78343 -1.78343 -571.96338 -492.75 0.00 -157.38 4.16687 10.13247 0.00000
3006.50 -1.39659 -1.39659 -519.70685 -499.00 0.00 -157.38 4.16687 9.43064 0.00000
3009.85 -1.39571 -1.39571 -346.99860 -491.27 0.00 -157.38 3.54187 5.83343 0.00000
3011.49 -1.39438 -1.39438 -333.99402 -473.54 0.00 -157.38 3.54187 5.56383 0.00000
3014.93 -1.04009 -1.04009 -305.57031 -455.45 0.00 -157.38 3.54187 5.32595 0.00000
3016.50 -0.71166 -0.71166 -279.73065 -436.29 0.00 -157.38 3.54187 5.11606 0.00000
3019.85 -0.32227 -0.32227 76.61414 -396.91 0.00 -157.38 2.10437 -1.91840 0.00000
3021.49 0.03809 0.03809 71.19458 -341.52 0.00 -157.38 2.10437 -1.44513 0.00000
3024.93 -0.25030 -0.25030 37.30775 -294.96 0.00 -154.74 2.10437 -1.02755 0.00000
3026.50 -0.51784 -0.51784 6.77995 -257.67 0.00 -135.18 2.10437 -0.65909 0.00000
3029.87 -0.52622 -0.52622 -37.81626 -229.18 0.00 -120.23 2.22937 0.26162 0.00000
3031.49 -0.53230 -0.53230 -49.22002 -207.34 0.00 -108.77 2.22937 0.49312 0.00000
3034.93 -0.86979 -0.86979 -75.22397 -190.26 0.00 -99.82 2.22937 0.69738 0.00000
3036.50 -1.18280 -1.18280 -98.89975 -178.12 0.00 -93.45 2.22937 0.87761 0.00000
3039.85 -1.58001 -1.58001 303.22412 -145.15 0.00 -76.15 0.35438 -7.89718 0.00000
3041.49 -1.94940 -1.94940 238.89621 -96.18 0.00 -50.46 0.35438 -6.92641 0.00000
3044.93 -1.58238 -1.58238 215.39847 -58.14 0.00 -30.50 0.35438 -6.06984 0.00000
3046.50 -1.24232 -1.24232 195.44316 -27.14 0.00 -14.24 0.35438 -5.31405 0.00000
3049.85 -1.03370 -1.03370 244.91743 1.96 0.00 1.03 0.04188 -6.13615 0.00000
3051.49 -0.84080 -0.84080 219.28926 29.04 0.00 15.23 0.04188 -5.40932 0.00000
3054.94 -0.54728 -0.54728 202.59476 50.44 0.00 26.46 0.04188 -4.76801 0.00000
3056.49 -0.27474 -0.27474 188.51515 67.51 0.00 35.42 0.04188 -4.20214 0.00000
3059.85 -0.41179 -0.41179 229.44110 84.15 0.00 44.15 -0.27062 -5.19181 0.00000
3061.49 -0.53936 -0.53936 195.52728 99.25 0.00 52.07 -0.27062 -4.61285 0.00000
3064.93 -0.96895 -0.96895 150.38657 107.92 0.00 56.62 -0.27062 -4.10200 0.00000
3066.52 -1.36816 -1.36816 109.58846 110.52 0.00 57.98 -0.27062 -3.65125 0.00000
3069.88 -0.84129 -0.84129 473.14023 131.79 0.00 69.14 -1.83312 -10.69838 0.00000
3071.49 -0.35280 -0.35280 446.52502 170.39 0.00 89.39 -1.83312 -9.65541 0.00000
3074.93 -0.53895 -0.53895 393.41705 199.75 0.00 104.79 -1.83312 -8.73514 0.00000
3076.51 -0.71187 -0.71187 346.14062 219.75 0.00 115.29 -1.83312 -7.92313 0.00000
3079.85 -1.04522 -1.04522 238.57265 228.29 0.00 119.77 -1.58312 -6.01549 0.00000
3081.49 -1.35494 -1.35494 198.67644 227.16 0.00 119.17 -1.58312 -5.49403 0.00000
3084.93 -1.53201 -1.53201 168.09196 222.01 0.00 116.47 -1.58312 -5.03392 0.00000
3086.50 -1.69803 -1.69803 140.63608 214.05 0.00 112.29 -1.58312 -4.62795 0.00000
3089.60 -1.11729 -1.11729 151.31731 206.04 0.00 108.09 -1.58312 -4.26973 0.00000
3091.86 -0.49855 -0.49855 608.96277 226.52 0.00 118.84 -3.52063 -13.18528 0.00000
3094.92 0.07775 0.07775 582.04852 269.93 0.00 141.61 -3.52063 -12.04826 0.00000
3096.49 0.61283 0.61283 559.57593 305.33 0.00 157.38 -3.52063 -11.04500 0.00000
3099.48 0.22077 0.22077 498.26624 331.63 0.00 157.38 -3.52063 -10.15978 0.00000
3101.86 -0.19423 -0.19423 154.97212 331.04 0.00 157.38 -2.27063 -3.42282 0.00000
3104.92 0.34395 0.34395 174.29858 311.47 0.00 157.38 -2.27063 -3.28727 0.00000
3106.49 0.84380 0.84380 192.54996 296.40 0.00 155.50 -2.27063 -3.16766 0.00000
3109.48 0.84918 0.84918 187.74240 283.90 0.00 148.94 -2.27063 -3.06212 0.00000
3111.86 0.91377 0.91377 515.13794 291.85 0.00 153.11 -3.70813 -9.81827 0.00000
3114.93 0.72552 0.72552 471.59729 315.56 0.00 157.38 -3.70813 -9.09943 0.00000
3116.51 0.55083 0.55083 432.76709 331.63 0.00 157.38 -3.70813 -8.46515 0.00000
3119.50 0.27010 0.27010 392.42908 341.16 0.00 157.38 -3.70813 -7.90550 0.00000
3121.87 -0.07743 -0.07743 -133.95549 316.22 0.00 157.38 -1.58312 2.71331 0.00000
3124.92 0.12067 0.12067 -100.18439 265.25 0.00 139.15 -1.58312 2.20785 0.00000
3126.49 0.30387 0.30387 -69.98302 224.03 0.00 117.53 -1.58312 1.76185 0.00000
3129.48 0.77212 0.77212 -28.61765 191.88 0.00 100.66 -1.58312 1.36833 0.00000
3131.86 1.29421 1.29421 499.10925 196.98 0.00 103.34 -3.70813 -9.10390 0.00000
3134.93 1.53950 1.53950 480.41296 231.42 0.00 121.41 -3.70813 -8.46910 0.00000
3136.50 1.76764 1.76764 464.47833 259.78 0.00 136.28 -3.70813 -7.90899 0.00000
3139.48 1.46838 1.46838 426.39117 281.62 0.00 147.74 -3.70813 -7.41477 0.00000
3141.88 1.10688 1.10688 -83.59859 268.65 0.00 140.94 -1.64562 2.84852 0.00000
3144.93 1.42946 1.42946 -42.73624 229.62 0.00 120.46 -1.64562 2.31979 0.00000
3146.49 1.72970 1.72970 -5.93161 199.74 0.00 104.79 -1.64562 1.85327 0.00000
3149.69 1.91467 1.91467 22.70549 177.23 0.00 92.98 -1.64562 1.44164 0.00000
3151.86 2.06971 2.06971 -52.47744 154.63 0.00 81.12 -1.20812 3.16299 0.00000
3154.47 2.21500 2.21500 -20.81954 132.12 0.00 69.31 -1.20812 2.64874 0.00000
3156.98 1.63026 1.63026 -27.10748 113.76 0.00 59.68 -1.20812 2.19499 0.00000
3158.99 1.08893 1.08893 -33.87341 96.79 0.00 50.78 -1.20812 1.79463 0.00000
3162.35 1.39862 1.39862 -273.63977 67.31 0.00 35.31 -0.02062 7.09945 0.00000
3164.44 1.68702 1.68702 -219.58900 30.38 0.00 15.94 -0.02062 6.26180 0.00000
3166.98 2.00794 2.00794 -168.70770 3.97 0.00 2.08 -0.02062 5.52269 0.00000
3168.99 2.30701 2.30701 -123.04898 -13.66 0.00 -7.17 -0.02062 4.87053 0.00000
3172.35 2.44460 2.44460 39.82285 -16.95 0.00 -8.89 -0.58312 1.61496 0.00000
3174.44 2.57400 2.57400 58.44702 -9.18 0.00 -4.81 -0.58312 1.35636 0.00000
3176.98 2.69129 2.69129 75.02914 -0.25 0.00 -0.13 -0.58312 1.12818 0.00000
3178.99 2.80166 2.80166 89.99094 9.49 0.00 4.98 -0.58312 0.92685 0.00000
3182.35 2.77897 2.77897 -302.80688 -4.14 0.00 -2.17 1.16688 9.08744 0.00000
3184.43 2.76056 2.76056 -258.96246 -36.70 0.00 -19.25 1.16688 8.15561 0.00000
3186.98 2.69284 2.69284 -222.74716 -60.72 0.00 -31.85 1.16688 7.33341 0.00000
3188.99 2.63155 2.63155 -190.86624 -77.91 0.00 -40.87 1.16688 6.60793 0.00000
3192.37 2.03531 2.03531 -388.87738 -102.84 0.00 -53.95 2.04187 10.13692 0.00000
3194.44 1.48332 1.48332 -369.65964 -135.36 0.00 -71.01 2.04187 9.18456 0.00000
3196.98 1.33235 1.33235 -336.57120 -160.98 0.00 -84.45 2.04187 8.34424 0.00000
3198.99 1.19294 1.19294 -307.67261 -179.94 0.00 -94.40 2.04187 7.60279 0.00000
3202.36 0.98612 0.98612 -357.66779 -197.91 0.00 -103.83 2.35437 8.43753 0.00000
3204.44 0.79549 0.79549 -332.46585 -215.22 0.00 -112.91 2.35437 7.72187 0.00000
3206.98 0.71248 0.71248 -306.13980 -227.47 0.00 -119.33 2.35437 7.09039 0.00000
3209.01 0.63601 0.63601 -283.06586 -235.36 0.00 -123.48 2.35437 6.53321 0.00000
3212.37 0.00726 0.00726 -475.47101 -252.29 0.00 -132.36 3.16687 9.91291 0.00000
3214.44 -0.57605 -0.57605 -465.37491 -277.96 0.00 -145.82 3.16687 9.11926 0.00000
3216.99 -0.19638 -0.19638 -413.53702 -296.96 0.00 -155.79 3.16687 8.41897 0.00000
3219.00 0.15558 0.15558 -366.98376 -307.93 0.00 -157.38 3.16687 7.80108 0.00000
3222.35 0.09007 0.09007 -358.25256 -314.37 0.00 -157.38 3.22937 7.55367 0.00000
3224.44 0.02987 0.02987 -336.72250 -318.26 0.00 -157.38 3.22937 7.04493 0.00000
3226.98 -0.42226 -0.42226 -336.87842 -320.44 0.00 -157.38 3.22937 6.59604 0.00000
3229.00 -0.84185 -0.84185 -338.00687 -322.44 0.00 -157.38 3.22937 6.19996 0.00000
3232.37 -0.64208 -0.64208 -411.70148 -328.61 0.00 -157.38 3.66687 7.93504 0.00000
3234.44 -0.45677 -0.45677 -378.70377 -336.44 0.00 -157.38 3.66687 7.43290 0.00000
3236.98 -0.67560 -0.67560 -367.94077 -340.78 0.00 -157.38 3.66687 6.98983 0.00000
3239.01 -0.87764 -0.87764 -358.87366 -343.44 0.00 -157.38 3.66687 6.59889 0.00000
3242.35 -1.16401 -1.16401 -327.47394 -343.41 0.00 -157.38 3.54187 5.65836 0.00000
3244.44 -1.43014 -1.43014 -328.29608 -341.59 0.00 -157.38 3.54187 5.40936 0.00000
3246.99 -1.52848 -1.52848 -322.47058 -339.68 0.00 -157.38 3.54187 5.18966 0.00000
3249.00 -1.61282 -1.61282 -317.21378 -337.35 0.00 -157.38 3.54187 4.99580 0.00000
3252.38 -1.43078 -1.43078 -171.61836 -326.41 0.00 -157.38 2.97937 2.14460 0.00000
3254.44 -1.26257 -1.26257 -168.25822 -308.00 0.00 -157.38 2.97937 2.24281 0.00000
3256.98 -1.64496 -1.64496 -190.77208 -292.89 0.00 -153.65 2.97937 2.32946 0.00000
3258.99 -2.00061 -2.00061 -211.51337 -282.09 0.00 -147.99 2.97937 2.40592 0.00000
3262.35 -2.11803 -2.11803 -106.03514 -267.59 0.00 -140.38 2.47937 0.09103 0.00000
3264.44 -2.20394 -2.20394 -123.64565 -249.62 0.00 -130.95 2.47937 0.37201 0.00000
3266.98 -1.67924 -1.67924 -110.36064 -234.01 0.00 -122.77 2.47937 0.61994 0.00000
3268.99 -1.19350 -1.19350 -97.54548 -218.71 0.00 -114.74 2.47937 0.83869 0.00000
3272.35 -1.61533 -1.61533 216.00055 -186.01 0.00 -97.59 0.97938 -6.11534 0.00000
3274.44 -2.00752 -2.00752 157.11115 -142.18 0.00 -74.59 0.97938 -5.28067 0.00000
3276.98 -1.96880 -1.96880 123.61900 -108.94 0.00 -57.15 0.97938 -4.54419 0.00000
3279.02 -1.93474 -1.93474 94.06165 -83.32 0.00 -43.71 0.97938 -3.89436 0.00000
3282.35 -2.29288 -2.29288 35.05481 -65.92 0.00 -34.58 1.04188 -3.02319 0.00000
3284.44 -2.62659 -2.62659 -3.91898 -56.34 0.00 -29.55 1.04188 -2.54495 0.00000
3286.98 -2.03640 -2.03640 4.15525 -49.69 0.00 -26.07 1.04188 -2.12297 0.00000
3288.99 -1.49011 -1.49011 12.50510 -42.87 0.00 -22.49 1.04188 -1.75063 0.00000
3292.35 -1.81838 -1.81838 424.09634 -12.14 0.00 -6.37 -0.89562 -10.65372 0.00000
3294.44 -2.12397 -2.12397 354.32330 35.08 0.00 18.40 -0.89562 -9.50571 0.00000
3296.98 -2.22295 -2.22295 300.95044 69.49 0.00 36.46 -0.89562 -8.49276 0.00000
3299.01 -2.31637 -2.31637 253.56505 93.94 0.00 49.28 -0.89562 -7.59897 0.00000
3302.35 -2.40850 -2.40850 268.46494 113.59 0.00 59.59 -1.14562 -8.00152 0.00000
3304.44 -2.49540 -2.49540 225.57828 129.29 0.00 67.83 -1.14562 -7.19495 0.00000
3306.98 -2.05454 -2.05454 212.57867 139.85 0.00 73.37 -1.14562 -6.48326 0.00000
3309.00 -1.64700 -1.64700 201.99860 147.79 0.00 77.53 -1.14562 -5.85530 0.00000
3312.35 -1.36687 -1.36687 603.37842 177.78 0.00 93.26 -2.95813 -13.93725 0.00000
3314.44 -1.10822 -1.10822 553.79388 224.93 0.00 118.00 -2.95813 -12.64559 0.00000
3317.00 -0.89903 -0.89903 509.12891 260.99 0.00 136.92 -2.95813 -11.50589 0.00000
3318.99 -0.70628 -0.70628 470.11133 287.89 0.00 151.03 -2.95813 -10.50027 0.00000
3322.35 -0.59519 -0.59519 432.85278 307.14 0.00 157.38 -2.95813 -9.61296 0.00000
3324.44 -0.49243 -0.49243 400.20502 320.01 0.00 157.38 -2.95813 -8.83003 0.00000
3326.98 -0.13520 -0.13520 384.19299 328.50 0.00 157.38 -2.95813 -8.13922 0.00000
3329.00 0.19583 0.19583 370.82419 334.26 0.00 157.38 -2.95813 -7.52968 0.00000
3332.35 0.64209 0.64209 623.72296 353.44 0.00 157.38 -4.08313 -12.35214 0.00000
3334.44 1.05636 1.05636 596.91223 383.66 0.00 157.38 -4.08313 -11.37931 0.00000
3336.99 0.76195 0.76195 541.57843 405.50 0.00 157.38 -4.08313 -10.52093 0.00000
3339.00 0.48836 0.48836 492.09131 418.59 0.00 157.38 -4.08313 -9.76354 0.00000
3342.38 0.96012 0.96012 339.71649 418.28 0.00 157.38 -3.45813 -6.11731 0.00000
3344.44 1.39511 1.39511 345.57928 409.38 0.00 157.38 -3.45813 -5.80446 0.00000
3346.98 1.86662 1.86662 354.96204 402.43 0.00 157.38 -3.45813 -5.52842 0.00000
3348.99 2.30542 2.30542 364.33325 397.39 0.00 157.38 -3.45813 -5.28485 0.00000
3352.36 2.35644 2.35644 456.52490 398.93 0.00 157.38 -3.89563 -7.15450 0.00000
3354.44 2.38119 2.38119 439.31006 404.69 0.00 157.38 -3.89563 -6.77110 0.00000
3356.98 1.98469 1.98469 404.03986 406.69 0.00 157.38 -3.89563 -6.43281 0.00000
3358.99 1.61761 1.61761 372.09201 404.50 0.00 157.38 -3.89563 -6.13431 0.00000
3362.36 1.89239 1.89239 301.16925 396.51 0.00 157.38 -3.58313 -4.38197 0.00000
3364.44 2.14807 2.14807 308.93054 385.75 0.00 157.38 -3.58313 -4.28798 0.00000
3367.00 2.05802 2.05802 300.62753 376.23 0.00 157.38 -3.58313 -4.20506 0.00000
3368.99 1.97507 1.97507 293.13406 366.89 0.00 157.38 -3.58313 -4.13189 0.00000
3372.35 1.93283 1.93283 273.71344 357.07 0.00 157.38 -3.52063 -3.76953 0.00000
3374.44 1.89285 1.89285 270.38855 347.07 0.00 157.38 -3.52063 -3.74025 0.00000
3376.98 1.77609 1.77609 263.54395 337.65 0.00 157.38 -3.52063 -3.71441 0.00000
3379.00 1.66864 1.66864 257.29187 328.56 0.00 157.38 -3.52063 -3.69161 0.00000
3382.35 1.84008 1.84008 50.14396 307.99 0.00 157.38 -2.58313 0.79542 0.00000
3384.44 1.99991 1.99991 76.89418 279.23 0.00 146.49 -2.58313 0.39794 0.00000
3386.98 1.78464 1.78464 83.39574 255.81 0.00 134.20 -2.58313 0.04723 0.00000
3389.00 1.58577 1.58577 88.70378 235.84 0.00 123.72 -2.58313 -0.26222 0.00000
3392.35 1.28817 1.28817 -198.35756 201.64 0.00 105.78 -1.33312 5.42061 0.00000
3394.44 1.01224 1.01224 -173.46329 156.05 0.00 81.86 -1.33312 4.62606 0.00000
3396.99 1.14511 1.14511 -133.43362 119.63 0.00 62.76 -1.33312 3.92498 0.00000
3399.00 1.26922 1.26922 -97.78349 91.96 0.00 48.24 -1.33312 3.30638 0.00000
3402.36 1.56228 1.56228 -43.22319 72.85 0.00 38.22 -1.39562 2.46276 0.00000
3404.44 1.83497 1.83497 -8.34556 61.24 0.00 32.13 -1.39562 2.00883 0.00000
3407.01 2.07067 2.07067 22.19357 54.85 0.00 28.78 -1.39562 1.60831 0.00000
3408.99 2.29067 2.29067 49.71681 52.63 0.00 27.61 -1.39562 1.25491 0.00000
3412.35 1.94392 1.94392 -423.66550 24.44 0.00 12.82 0.66688 10.77028 0.00000
3414.44 1.62290 1.62290 -382.01996 -25.83 0.00 -13.55 0.66688 9.58165 0.00000
3416.98 1.06182 1.06182 -358.60938 -66.36 0.00 -34.81 0.66688 8.53285 0.00000
3418.99 0.54155 0.54155 -339.16254 -99.59 0.00 -52.25 0.66688 7.60744 0.00000
3422.35 0.91793 0.91793 -367.66724 -129.46 0.00 -67.91 1.04188 8.57767 0.00000
3424.44 1.26773 1.26773 -308.32169 -153.99 0.00 -80.79 1.04188 7.69110 0.00000
3426.98 1.00576 1.00576 -283.34784 -170.68 0.00 -89.54 1.04188 6.90884 0.00000
3429.00 0.76450 0.76450 -261.79718 -182.67 0.00 -95.83 1.04188 6.21861 0.00000
3432.35 0.36626 0.36626 -594.73779 -211.56 0.00 -110.99 2.54187 12.75664 0.00000
3434.44 -0.00292 -0.00292 -554.77509 -254.29 0.00 -133.40 2.54187 11.55490 0.00000
3436.98 -0.40387 -0.40387 -523.12396 -287.78 0.00 -150.97 2.54187 10.49454 0.00000
3439.00 -0.77588 -0.77588 -496.07092 -313.87 0.00 -157.38 2.54187 9.55893 0.00000
3442.35 -0.49697 -0.49697 -628.88080 -343.12 0.00 -157.38 3.35437 12.60472 0.00000
3444.44 -0.23800 -0.23800 -564.21289 -372.94 0.00 -157.38 3.35437 11.51644 0.00000
3446.98 -0.23336 -0.23336 -517.89874 -392.72 0.00 -157.38 3.35437 10.55620 0.00000
3449.00 -0.22841 -0.22841 -476.99167 -405.04 0.00 -157.38 3.35437 9.70892 0.00000
3452.36 -0.43209 -0.43209 -622.41364 -422.06 0.00 -157.38 4.10437 12.53486 0.00000
3454.44 -0.62070 -0.62070 -583.85925 -443.36 0.00 -157.38 4.10437 11.54303 0.00000
3456.98 -1.06953 -1.06953 -563.39624 -458.69 0.00 -157.38 4.10437 10.66790 0.00000
3459.01 -1.48646 -1.48646 -546.34442 -470.00 0.00 -157.38 4.10437 9.89572 0.00000
3462.35 -1.42159 -1.42159 -581.99713 -481.08 0.00 -157.38 4.41687 10.70335 0.00000
3464.44 -1.36175 -1.36175 -543.62433 -490.70 0.00 -157.38 4.41687 9.96376 0.00000
3466.99 -1.27757 -1.27757 -508.26038 -494.84 0.00 -157.38 4.41687 9.31118 0.00000
3469.01 -1.19911 -1.19911 -476.85562 -494.57 0.00 -157.38 4.41687 8.73538 0.00000
3472.35 -1.70438 -1.70438 -448.13333 -490.80 0.00 -157.38 4.29187 7.63173 0.00000
3474.43 -2.17387 -2.17387 -451.80829 -486.00 0.00 -157.38 4.29187 7.23880 0.00000
3476.99 -2.64501 -2.64501 -457.78152 -482.33 0.00 -157.38 4.29187 6.89211 0.00000
3478.99 -3.08382 -3.08382 -464.16055 -479.81 0.00 -157.38 4.29187 6.58619 0.00000
3482.36 -3.49019 -3.49019 -427.82785 -475.83 0.00 -157.38 4.10437 5.42289 0.00000
3484.44 -3.86950 -3.86950 -438.58878 -470.82 0.00 -157.38 4.10437 5.26777 0.00000
3486.99 -3.34210 -3.34210 -406.70392 -465.15 0.00 -157.38 4.10437 5.13090 0.00000
3489.00 -2.85437 -2.85437 -377.49615 -456.56 0.00 -157.38 4.10437 5.01013 0.00000
3492.35 -3.22500 -3.22500 -61.40632 -428.66 0.00 -157.38 2.66687 -1.94570 0.00000
3494.43 -3.57040 -3.57040 -104.03327 -387.96 0.00 -157.38 2.66687 -1.40304 0.00000
3496.99 -3.89091 -3.89091 -142.40080 -356.82 0.00 -157.38 2.66687 -0.92423 0.00000
3498.99 -4.19064 -4.19064 -177.06696 -333.63 0.00 -157.38 2.66687 -0.50175 0.00000
3502.35 -4.44943 -4.44943 -235.97046 -318.68 0.00 -157.38 2.79187 0.46662 0.00000
3504.43 -4.69092 -4.69092 -260.69269 -310.40 0.00 -157.38 2.79187 0.74018 0.00000
3506.99 -4.04910 -4.04910 -241.47107 -303.42 0.00 -157.38 2.79187 0.98155 0.00000
3509.01 -3.45592 -3.45592 -223.22145 -295.06 0.00 -154.79 2.79187 1.19453 0.00000
3512.38 -3.74130 -3.74130 154.29550 -264.40 0.00 -138.71 1.04188 -6.95578 0.00000
3514.44 -4.00812 -4.00812 96.32460 -218.55 0.00 -114.66 1.04188 -6.01488 0.00000
3516.99 -4.18212 -4.18212 48.12284 -184.34 0.00 -96.71 1.04188 -5.18468 0.00000
3519.00 -1.45867 -1.45867 143.68675 -151.37 0.00 -79.41 1.04188 -4.45214 0.00000
3522.35 -1.03963 -1.03963 290.01080 -108.05 0.00 -56.69 0.35438 -7.08152 0.00000
3524.44 -0.65108 -0.65108 266.67053 -62.60 0.00 -32.84 0.35438 -6.20671 0.00000
3526.98 -0.63841 -0.63841 230.22762 -26.00 0.00 -13.64 0.35438 -5.43482 0.00000
3529.00 -0.62742 -0.62742 198.06313 2.25 0.00 1.18 0.35438 -4.75374 0.00000
3532.35 -0.69007 -0.69007 452.09271 40.23 0.00 21.11 -0.89562 -10.10866 0.00000
3534.44 -0.74838 -0.74838 397.26682 85.46 0.00 44.83 -0.89562 -9.02478 0.00000
3536.98 -1.13763 -1.13763 332.67700 118.34 0.00 62.08 -0.89562 -8.06841 0.00000
3539.00 -1.49940 -1.49940 274.80713 140.16 0.00 73.53 -0.89562 -7.22455 0.00000
3542.35 -1.13640 -1.13640 528.07947 170.89 0.00 89.65 -2.08313 -12.13806 0.00000
3544.44 -0.80011 -0.80011 487.44058 210.53 0.00 110.45 -2.08313 -10.95512 0.00000
3546.98 -0.45832 -0.45832 453.74570 241.12 0.00 126.50 -2.08313 -9.91136 0.00000
3549.00 -0.14152 -0.14152 424.74567 264.43 0.00 138.72 -2.08313 -8.99039 0.00000
3552.35 -0.50525 -0.50525 496.92767 287.54 0.00 150.85 -2.64563 -10.85791 0.00000
3554.44 -0.84281 -0.84281 434.34961 308.49 0.00 157.38 -2.64563 -9.89176 0.00000
3556.98 -0.31179 -0.31179 418.91913 322.39 0.00 157.38 -2.64563 -9.03927 0.00000
3559.01 0.18101 0.18101 406.46814 333.01 0.00 157.38 -2.64563 -8.28708 0.00000
3562.35 0.74072 0.74072 758.82941 362.38 0.00 157.38 -4.20813 -15.06823 0.00000
3564.43 1.26016 1.26016 722.43469 406.88 0.00 157.38 -4.20813 -13.79057 0.00000
3566.98 1.60459 1.60459 684.85474 441.80 0.00 157.38 -4.20813 -12.66322 0.00000
3569.19 10.00000 10.00000 1040.08813 491.29 0.00 157.38 -4.20813 -11.66850 0.00000
3572.36 10.00000 10.00000 997.95886 553.37 0.00 157.38 -4.20813 -10.79081 0.00000
3574.43 10.00000 10.00000 960.78607 603.49 0.00 157.38 -4.20813 -10.01638 0.00000
3576.98 10.00000 10.00000 927.98645 643.60 0.00 157.38 -4.20813 -9.33305 0.00000
3579.00 10.00000 10.00000 899.04565 675.35 0.00 157.38 -4.20813 -8.73012 0.00000
3582.35 10.00000 10.00000 844.92139 698.48 0.00 157.38 -4.08313 -7.60253 0.00000
3584.44 10.00000 10.00000 825.04700 714.54 0.00 157.38 -4.08313 -7.18848 0.00000
3586.99 10.00000 10.00000 807.51074 726.51 0.00 157.38 -4.08313 -6.82314 0.00000
3589.02 9.85964 9.85964 785.30054 734.73 0.00 157.38 -4.08313 -6.50078 0.00000
3592.34 9.44869 9.44869 766.21619 739.56 0.00 157.38 -4.14563 -6.51414 0.00000
3594.44 9.07165 9.07165 734.74304 740.85 0.00 157.38 -4.14563 -6.23549 0.00000
3596.98 8.90888 8.90888 715.12805 738.97 0.00 157.38 -4.14563 -5.98962 0.00000
3599.01 8.76213 8.76213 697.67090 735.14 0.00 157.38 -4.14563 -5.77268 0.00000
3602.35 8.44152 8.44152 673.09357 729.29 0.00 157.38 -4.14563 -5.58126 0.00000
3604.44 8.14680 8.14680 650.83972 721.37 0.00 157.38 -4.14563 -5.41236 0.00000
3606.98 7.92480 7.92480 633.03003 712.02 0.00 157.38 -4.14563 -5.26333 0.00000
3609.02 7.72263 7.72263 617.01440 701.79 0.00 157.38 -4.14563 -5.13183 0.00000
3612.35 7.54584 7.54584 660.13562 694.35 0.00 157.38 -4.39563 -6.20698 0.00000
3614.45 7.38482 7.38482 642.17737 689.27 0.00 157.38 -4.39563 -5.99388 0.00000
3616.98 6.83919 6.83919 606.96149 681.66 0.00 157.38 -4.39563 -5.80585 0.00000
3618.99 10.00000 10.00000 750.71686 681.33 0.00 157.38 -4.39563 -5.63993 0.00000
3622.35 10.00000 10.00000 429.21945 670.58 0.00 157.38 -3.02063 1.05793 0.00000
3624.44 10.00000 10.00000 452.25122 643.54 0.00 157.38 -3.02063 0.57810 0.00000
3626.99 10.00000 10.00000 472.57336 622.23 0.00 157.38 -3.02063 0.15472 0.00000
3629.00 10.00000 10.00000 490.50470 605.68 0.00 157.38 -3.02063 -0.21885 0.00000
3632.34 10.00000 10.00000 506.32645 593.06 0.00 157.38 -3.02063 -0.54847 0.00000
3634.43 10.00000 10.00000 520.28680 583.68 0.00 157.38 -3.02063 -0.83931 0.00000
3636.98 10.00000 10.00000 532.60480 576.94 0.00 157.38 -3.02063 -1.09593 0.00000
3639.01 10.00000 10.00000 543.47363 572.37 0.00 157.38 -3.02063 -1.32237 0.00000
3642.35 10.00000 10.00000 181.41664 547.67 0.00 157.38 -1.39562 6.22049 0.00000
3644.44 10.00000 10.00000 224.42526 507.11 0.00 157.38 -1.39562 5.32447 0.00000
3646.98 10.00000 10.00000 262.37402 476.09 0.00 157.38 -1.39562 4.53387 0.00000
3648.99 10.00000 10.00000 295.85822 452.91 0.00 157.38 -1.39562 3.83629 0.00000
3652.35 10.00000 10.00000 82.40314 421.88 0.00 157.38 -0.33312 8.28327 0.00000
3654.44 10.00000 10.00000 131.06044 384.80 0.00 157.38 -0.33312 7.26957 0.00000
3656.98 10.00000 10.00000 173.99336 357.48 0.00 157.38 -0.33312 6.37514 0.00000
3659.01 10.00000 10.00000 211.87534 338.12 0.00 157.38 -0.33312 5.58593 0.00000
3662.35 10.00000 10.00000 -11.99350 310.10 0.00 157.38 0.79188 10.24986 0.00000
3664.44 10.00000 10.00000 41.41635 275.35 0.00 144.45 0.79188 9.13716 0.00000
3667.02 10.00000 10.00000 88.54271 250.60 0.00 131.47 0.79188 8.15536 0.00000
3668.99 10.00000 10.00000 130.12477 233.98 0.00 122.75 0.79188 7.28907 0.00000
3672.35 10.00000 10.00000 -290.59689 197.01 0.00 103.36 2.79187 16.05410 0.00000
3674.44 10.00000 10.00000 -215.70424 144.05 0.00 75.57 2.79187 14.49384 0.00000
3677.00 10.00000 10.00000 -149.62239 105.61 0.00 55.41 2.79187 13.11713 0.00000
3679.01 10.00000 10.00000 -91.31493 79.02 0.00 41.45 2.79187 11.90239 0.00000
3682.35 10.00000 10.00000 -111.33778 57.80 0.00 30.32 3.10437 12.31954 0.00000
3684.44 10.00000 10.00000 -59.29912 40.96 0.00 21.49 3.10437 11.23540 0.00000
3686.98 10.00000 10.00000 -13.38258 31.87 0.00 16.72 3.10437 10.27880 0.00000
3688.99 10.00000 10.00000 27.13188 28.93 0.00 15.18 3.10437 9.43475 0.00000
3692.34 10.00000 10.00000 -451.70819 0.55 0.00 0.29 5.35437 19.41059 0.00000
3694.43 10.00000 10.00000 -372.33179 -47.99 0.00 -25.18 5.35437 17.75691 0.00000
3696.98 10.00000 10.00000 -302.29376 -82.03 0.00 -43.03 5.35437 16.29779 0.00000
3699.02 10.00000 10.00000 -240.49548 -104.31 0.00 -54.72 5.35437 15.01032 0.00000
3702.09 10.00000 10.00000 -185.96777 -117.12 0.00 -61.44 5.35437 13.87433 0.00000
3704.81 10.00000 10.00000 -409.44324 -138.37 0.00 -72.59 6.54187 18.53007 0.00000
3706.98 10.00000 10.00000 -341.74493 -166.27 0.00 -87.23 6.54187 17.11969 0.00000
3709.01 9.82266 9.82266 -290.52338 -183.91 0.00 -96.48 6.54187 15.87523 0.00000
3711.98 9.70925 9.70925 -243.26111 -193.67 0.00 -101.60 6.54187 14.77719 0.00000
3714.81 10.00000 10.00000 -583.03473 -219.49 0.00 -115.15 8.29187 22.14656 0.00000
3716.98 10.00000 10.00000 -504.79633 -257.66 0.00 -135.17 8.29187 20.51659 0.00000
3719.01 10.00000 10.00000 -435.76227 -282.67 0.00 -148.29 8.29187 19.07838 0.00000
3721.98 10.00000 10.00000 -374.85004 -297.10 0.00 -155.86 8.29187 17.80938 0.00000
3724.82 10.00000 10.00000 -263.92731 -299.72 0.00 -157.24 8.04187 15.49849 0.00000
3726.98 10.00000 10.00000 -221.81909 -293.03 0.00 -153.73 8.04187 14.62123 0.00000
3728.99 10.00000 10.00000 -184.66479 -282.47 0.00 -148.19 8.04187 13.84718 0.00000
3731.98 10.00000 10.00000 -151.88159 -269.03 0.00 -141.14 8.04187 13.16420 0.00000
3734.81 10.00000 10.00000 -651.83771 -284.66 0.00 -149.34 10.35437 23.57995 0.00000
3737.00 10.00000 10.00000 -577.15192 -323.47 0.00 -157.38 10.35437 22.02400 0.00000
3738.98 10.00000 10.00000 -511.25262 -349.43 0.00 -157.38 10.35437 20.65110 0.00000
3741.98 9.65828 9.65828 -469.50861 -366.02 0.00 -157.38 10.35437 19.43971 0.00000
3744.81 8.99787 8.99787 -492.78497 -379.56 0.00 -157.38 10.54187 19.26423 0.00000
3746.98 8.25591 8.25591 -479.14362 -392.08 0.00 -157.38 10.54187 18.23806 0.00000
3749.00 7.57058 7.57058 -468.57843 -401.70 0.00 -157.38 10.54187 17.33263 0.00000
3751.98 6.60765 6.60765 -476.45123 -410.03 0.00 -157.38 10.54187 16.53372 0.00000
3754.82 5.67501 5.67501 -716.08777 -431.94 0.00 -157.38 11.54187 20.59350 0.00000
3756.99 4.80565 4.80565 -706.70160 -464.82 0.00 -157.38 11.54187 19.52860 0.00000
3759.00 3.99865 3.99865 -700.33594 -492.90 0.00 -157.38 11.54187 18.58898 0.00000
3761.98 4.16574 4.16574 -652.51959 -514.49 0.00 -157.38 11.54187 17.75990 0.00000
3764.81 4.38113 4.38113 -264.00861 -507.88 0.00 -157.38 10.04187 9.88131 0.00000
3766.99 3.65604 3.65604 -299.71912 -481.29 0.00 -157.38 10.04187 9.90019 0.00000
3768.99 2.98185 2.98185 -332.88043 -461.88 0.00 -157.38 10.04187 9.91685 0.00000
3771.98 2.92941 2.92941 -336.10291 -446.89 0.00 -157.38 10.04187 9.93156 0.00000
3774.83 2.82316 2.82316 -670.59045 -453.53 0.00 -157.38 11.47937 16.79380 0.00000
3776.98 2.98205 2.98205 -632.95276 -476.85 0.00 -157.38 11.47937 16.16857 0.00000
3778.99 3.12834 3.12834 -599.45050 -493.25 0.00 -157.38 11.47937 15.61689 0.00000
3781.98 2.51875 2.51875 -605.34576 -506.09 0.00 -157.38 11.47937 15.13012 0.00000
3784.80 2.01598 2.01598 -251.50946 -496.95 0.00 -157.38 9.91687 7.25576 0.00000
3786.98 1.86562 1.86562 -273.75439 -469.39 0.00 -157.38 9.91687 7.56883 0.00000
3788.99 1.72650 1.72650 -293.69128 -447.54 0.00 -157.38 9.91687 7.84507 0.00000
3791.98 1.21782 1.21782 -329.80701 -431.57 0.00 -157.38 9.91687 8.08880 0.00000
3794.84 0.75577 0.75577 -290.83795 -417.30 0.00 -157.38 9.60437 6.81490 0.00000
3797.24 4.65435 4.65435 -119.45856 -392.34 0.00 -157.38 9.60437 7.14307 0.00000
3798.99 4.72752 4.72752 -129.84503 -360.85 0.00 -157.38 9.60437 7.43263 0.00000
3801.49 4.79518 4.79518 -138.86151 -334.20 0.00 -157.38 9.60437 7.68813 0.00000
3805.30 4.95446 4.95446 229.61005 -289.55 0.00 -151.90 7.97937 0.17091 0.00000
3806.49 5.10353 5.10353 192.67108 -230.64 0.00 -121.00 7.97937 1.08955 0.00000
3809.49 4.48403 4.48403 124.02814 -184.88 0.00 -96.99 7.97937 1.90011 0.00000
3811.52 3.90875 3.90875 62.08502 -152.18 0.00 -79.84 7.97937 2.61531 0.00000
3815.30 3.25790 3.25790 -28.03491 -132.27 0.00 -69.39 8.10437 3.84196 0.00000
3816.49 3.30865 3.30865 -49.66901 -121.28 0.00 -63.63 8.10437 4.34342 0.00000
3819.48 3.09541 3.09541 -81.14246 -114.71 0.00 -60.18 8.10437 4.78588 0.00000
3821.49 2.89815 2.89815 -109.35077 -112.42 0.00 -58.98 8.10437 5.17629 0.00000
3825.30 2.80667 2.80667 355.72321 -84.70 0.00 -44.44 5.97937 -4.60423 0.00000
3826.49 2.72042 2.72042 291.81747 -36.65 0.00 -19.22 5.97937 -3.35911 0.00000
3829.49 2.38893 2.38893 223.17078 -2.04 0.00 -1.07 5.97937 -2.26046 0.00000
3831.49 2.07957 2.07957 161.79108 20.84 0.00 10.93 5.97937 -1.29107 0.00000
3835.30 2.48929 2.48929 283.34216 44.58 0.00 23.39 5.35437 -3.41367 0.00000
3836.49 2.86828 2.86828 252.02014 70.82 0.00 37.16 5.35437 -2.38214 0.00000
3839.48 2.77273 2.77273 203.74512 89.30 0.00 46.85 5.35437 -1.47196 0.00000
3841.49 2.68361 2.68361 160.91858 100.25 0.00 52.59 5.35437 -0.66887 0.00000
3845.30 2.91761 2.91761 709.90186 139.68 0.00 73.28 2.85437 -11.87201 0.00000
3846.49 3.13325 3.13325 637.09180 202.48 0.00 106.22 2.85437 -10.13950 0.00000
3849.49 2.77438 2.77438 546.48883 248.28 0.00 130.25 2.85437 -8.61081 0.00000
3851.50 2.44013 2.44013 465.70044 278.61 0.00 146.16 2.85437 -7.26196 0.00000
3855.29 2.46690 2.46690 309.79913 291.45 0.00 152.90 3.29187 -3.98725 0.00000
3856.50 2.49294 2.49294 269.94342 291.27 0.00 152.80 3.29187 -3.13088 0.00000
3859.48 3.01295 3.01295 258.63437 288.09 0.00 151.14 3.29187 -2.37527 0.00000
3861.49 3.49406 3.49406 249.72487 284.10 0.00 149.04 3.29187 -1.70854 0.00000
3865.29 3.88705 3.88705 869.29230 316.50 0.00 157.38 0.54188 -14.22320 0.00000
3866.49 4.25133 4.25133 803.39813 377.66 0.00 157.38 0.54188 -12.48613 0.00000
3869.48 3.86955 3.86955 711.50299 422.34 0.00 157.38 0.54188 -10.95343 0.00000
3871.49 3.51453 3.51453 629.54724 451.54 0.00 157.38 0.54188 -9.60104 0.00000
3875.30 3.83308 3.83308 358.85416 456.56 0.00 157.38 1.54188 -3.64305 0.00000
3876.50 4.12779 4.12779 343.72058 444.17 0.00 157.38 1.54188 -3.03306 0.00000
3879.48 4.57116 4.57116 339.16730 432.09 0.00 157.38 1.54188 -2.49483 0.00000
3881.49 4.98214 4.98214 336.09924 420.98 0.00 157.38 1.54188 -2.01992 0.00000
3885.30 4.59034 4.59034 797.47314 438.13 0.00 157.38 -0.64562 -12.02368 0.00000
3886.49 4.22713 4.22713 715.78625 475.60 0.00 157.38 -0.64562 -10.68509 0.00000
3889.48 4.48270 4.48270 671.36035 501.24 0.00 157.38 -0.64562 -9.50397 0.00000
3891.52 4.71974 4.71974 632.71448 518.98 0.00 157.38 -0.64562 -8.46181 0.00000
3895.31 4.96580 4.96580 385.97525 517.85 0.00 157.38 0.29188 -3.07535 0.00000
3896.49 5.19366 5.19366 377.89740 501.86 0.00 157.38 0.29188 -2.67921 0.00000
3899.48 5.40911 5.40911 371.46133 486.90 0.00 157.38 0.29188 -2.32967 0.00000
3901.51 5.60893 5.60893 366.24857 473.01 0.00 157.38 0.29188 -2.02125 0.00000
3905.30 6.00468 6.00468 643.77051 476.78 0.00 157.38 -0.89562 -7.40721 0.00000
3906.49 6.36716 6.36716 624.39825 495.28 0.00 157.38 -0.89562 -6.64114 0.00000
3909.48 5.97756 5.97756 573.25220 507.46 0.00 157.38 -0.89562 -5.96519 0.00000
3911.49 5.61624 5.61624 527.28052 512.50 0.00 157.38 -0.89562 -5.36877 0.00000
3915.29 5.90592 5.90592 201.45442 495.07 0.00 157.38 0.47938 1.70895 0.00000
3916.49 6.17543 6.17543 221.33450 461.70 0.00 157.38 0.47938 1.56429 0.00000
3919.49 6.23354 6.23354 230.25018 433.94 0.00 157.38 0.47938 1.43666 0.00000
3921.51 6.28757 6.28757 238.24974 410.45 0.00 157.38 0.47938 1.32403 0.00000
3925.30 5.89654 5.89654 438.66174 401.98 0.00 157.38 -0.45812 -3.24225 0.00000
3926.50 5.53388 5.53388 405.53198 404.35 0.00 157.38 -0.45812 -2.91470 0.00000
3929.48 5.96819 5.96819 412.50659 404.90 0.00 157.38 -0.45812 -2.62569 0.00000
3931.49 6.37152 6.37152 419.62579 406.21 0.00 157.38 -0.45812 -2.37069 0.00000
3935.29 5.92776 5.92776 187.40749 394.13 0.00 157.38 0.41688 2.02344 0.00000
3936.49 5.51631 5.51631 176.73029 369.18 0.00 157.38 0.41688 1.83443 0.00000
3939.49 5.16174 5.16174 167.71567 346.01 0.00 157.38 0.41688 1.66766 0.00000
3941.51 4.83253 4.83253 158.97713 324.52 0.00 157.38 0.41688 1.52051 0.00000
3945.30 5.13736 5.13736 -220.39389 282.73 0.00 148.32 2.16687 9.72890 0.00000
3946.50 5.42036 5.42036 -164.10663 226.85 0.00 119.01 2.16687 8.83925 0.00000
3949.48 5.63616 5.63616 -116.06900 183.68 0.00 96.36 2.16687 8.05427 0.00000
3951.51 5.83750 5.83750 -73.15814 150.94 0.00 79.18 2.16687 7.36163 0.00000
3955.30 5.67646 5.67646 19.91739 130.05 0.00 68.23 1.85438 5.26151 0.00000
3956.49 5.53002 5.53002 32.12865 117.81 0.00 61.81 1.85438 4.86067 0.00000
3959.50 5.29698 5.29698 37.91949 108.07 0.00 56.70 1.85438 4.50699 0.00000
3961.49 5.08069 5.08069 42.51709 100.09 0.00 52.51 1.85438 4.19492 0.00000
3965.30 5.44820 5.44820 -126.74258 83.36 0.00 43.73 2.72937 8.08867 0.00000
3966.49 5.78925 5.78925 -80.10805 61.38 0.00 32.20 2.72937 7.45817 0.00000
3969.48 5.88062 5.88062 -49.01848 46.57 0.00 24.43 2.72937 6.90184 0.00000
3971.50 5.96627 5.96627 -21.34502 36.95 0.00 19.38 2.72937 6.41096 0.00000
3975.30 5.43567 5.43567 -283.31787 14.68 0.00 7.70 3.85437 11.33812 0.00000
3976.49 4.94420 4.94420 -264.64719 -19.28 0.00 -10.11 3.85437 10.45768 0.00000
3979.48 4.66458 4.66458 -240.77966 -46.74 0.00 -24.52 3.85437 9.68082 0.00000
3981.49 4.40620 4.40620 -220.27936 -68.36 0.00 -35.86 3.85437 8.99535 0.00000
3985.30 4.67733 4.67733 -578.46918 -107.31 0.00 -56.29 5.60437 16.72877 0.00000
3986.50 4.92881 4.92881 -503.57776 -158.33 0.00 -83.06 5.60437 15.42001 0.00000
3989.48 5.20330 5.20330 -434.97253 -194.91 0.00 -102.25 5.60437 14.26523 0.00000
3991.51 5.45781 5.45781 -373.84735 -219.56 0.00 -115.18 5.60437 13.24630 0.00000
3995.31 5.01572 5.01572 -108.91351 -222.13 0.00 -116.53 4.54187 7.28475 0.00000
3996.49 4.60615 4.60615 -113.08365 -209.05 0.00 -109.67 4.54187 6.96206 0.00000
3999.48 4.01184 4.01184 -127.94357 -198.64 0.00 -104.21 4.54187 6.67733 0.00000
4001.49 3.45959 3.45959 -142.39233 -191.17 0.00 -100.29 4.54187 6.42610 0.00000
4005.30 3.69789 3.69789 -720.66638 -219.45 0.00 -115.13 7.16687 18.71177 0.00000
4006.49 3.91923 3.91923 -644.84747 -273.95 0.00 -143.72 7.16687 17.35355 0.00000
4009.49 3.87544 3.87544 -589.42419 -314.33 0.00 -157.38 7.16687 16.15511 0.00000
4011.49 3.83570 3.83570 -540.57440 -343.82 0.00 -157.38 7.16687 15.09767 0.00000
4015.30 3.66751 3.66751 -232.27332 -348.83 0.00 -157.38 5.97937 8.50654 0.00000
4016.49 3.51105 3.51105 -225.51224 -334.72 0.00 -157.38 5.97937 8.20923 0.00000
4019.48 3.32369 3.32369 -221.91348 -321.66 0.00 -157.38 5.97937 7.94689 0.00000
4021.49 3.15144 3.15144 -219.07059 -309.76 0.00 -157.38 5.97937 7.71541 0.00000
4025.30 2.61885 2.61885 -692.24280 -326.92 0.00 -157.38 7.97937 17.04058 0.00000
4026.49 2.12360 2.12360 -664.84570 -368.29 0.00 -157.38 7.97937 15.97455 0.00000
4029.49 1.95672 1.95672 -627.70605 -400.99 0.00 -157.38 7.97937 15.03393 0.00000
4031.51 1.84185 1.84185 -593.38184 -425.65 0.00 -157.38 7.97937 14.20398 0.00000
4035.31 2.17244 2.17244 -227.89233 -423.88 0.00 -157.38 6.60437 6.92020 0.00000
4036.49 2.47781 2.47781 -211.45102 -399.86 0.00 -157.38 6.60437 6.88304 0.00000
4039.48 1.93709 1.93709 -235.83188 -379.13 0.00 -157.38 6.60437 6.85025 0.00000
4041.49 1.43349 1.43349 -258.61606 -363.61 0.00 -157.38 6.60437 6.82132 0.00000
4045.30 1.04450 1.04450 -561.94458 -369.10 0.00 -157.38 7.85437 12.75168 0.00000
4046.49 0.68333 0.68333 -551.62518 -391.18 0.00 -157.38 7.85437 12.17553 0.00000
4049.48 1.09040 1.09040 -507.68390 -407.47 0.00 -157.38 7.85437 11.66715 0.00000
4051.49 1.46600 1.46600 -468.12415 -416.93 0.00 -157.38 7.85437 11.21859 0.00000
4055.30 1.15172 1.15172 78.96515 -390.77 0.00 -157.38 5.47937 -0.49339 0.00000
4056.50 0.85892 0.85892 31.18213 -338.32 0.00 -157.38 5.47937 0.20929 0.00000
4059.48 0.62614 0.62614 -9.75137 -297.26 0.00 -155.95 5.47937 0.82930 0.00000
4061.50 0.40942 0.40942 -46.41330 -265.59 0.00 -139.33 5.47937 1.37636 0.00000
4065.30 -0.00682 -0.00682 -518.38605 -267.57 0.00 -140.37 7.35437 10.79289 0.00000
4066.49 -0.39540 -0.39540 -517.62048 -297.03 0.00 -155.83 7.35437 10.38836 0.00000
4069.48 -0.78235 -0.78235 -519.06097 -323.07 0.00 -157.38 7.35437 10.03142 0.00000
4071.51 -1.14467 -1.14467 -521.33478 -346.26 0.00 -157.38 7.35437 9.71647 0.00000
4075.30 -0.44343 -0.44343 183.19327 -325.41 0.00 -157.38 4.47937 -4.25995 0.00000
4076.50 0.20409 0.20409 164.92291 -266.65 0.00 -139.89 4.47937 -3.23180 0.00000
4079.49 -0.09458 -0.09458 107.04117 -219.28 0.00 -115.04 4.47937 -2.32461 0.00000
4081.51 -0.37301 -0.37301 55.25409 -183.94 0.00 -96.50 4.47937 -1.52414 0.00000
4085.30 0.16995 0.16995 4.53186 -158.78 0.00 -83.30 4.66687 0.07553 0.00000
4086.49 0.67437 0.67437 2.81680 -139.67 0.00 -73.27 4.66687 0.61569 0.00000
4089.48 0.73035 0.73035 -17.37332 -124.09 0.00 -65.10 4.66687 1.09230 0.00000
4091.49 0.78065 0.78065 -35.14462 -112.58 0.00 -59.06 4.66687 1.51283 0.00000
4095.30 1.38988 1.38988 390.81665 -78.42 0.00 -41.14 2.85437 -6.75213 0.00000
4096.49 1.95328 1.95328 363.61139 -24.81 0.00 -13.02 2.85437 -5.62196 0.00000
4099.49 1.98007 1.98007 317.03082 18.14 0.00 9.52 2.85437 -4.62474 0.00000
4101.50 2.00484 2.00484 275.98474 50.89 0.00 26.70 2.85437 -3.74485 0.00000
4105.30 1.70602 1.70602 381.61069 83.59 0.00 43.85 2.16687 -6.24420 0.00000
4106.49 1.42732 1.42732 320.73517 115.07 0.00 60.37 2.16687 -5.25466 0.00000
4109.48 1.08423 1.08423 262.35718 135.83 0.00 71.26 2.16687 -4.38154 0.00000
4111.49 0.76466 0.76466 210.03824 147.64 0.00 77.45 2.16687 -3.61114 0.00000
4115.30 0.63155 0.63155 428.31445 167.82 0.00 88.04 1.04188 -8.29167 0.00000
4116.49 0.50592 0.50592 369.57703 195.01 0.00 102.31 1.04188 -7.19360 0.00000
4119.48 0.67254 0.67254 331.06866 213.28 0.00 111.89 1.04188 -6.22472 0.00000
4121.51 0.82463 0.82463 297.33417 225.16 0.00 118.12 1.04188 -5.36983 0.00000
4125.29 1.49065 1.49065 636.15442 253.58 0.00 133.03 -0.45812 -11.76257 0.00000
4126.49 2.10694 2.10694 601.89966 296.57 0.00 155.59 -0.45812 -10.43264 0.00000
4129.49 2.05902 2.05902 543.27301 329.04 0.00 157.38 -0.45812 -9.25916 0.00000
4131.51 2.01361 2.01361 491.39331 351.20 0.00 157.38 -0.45812 -8.22375 0.00000
4135.30 2.46823 2.46823 612.30298 374.80 0.00 157.38 -1.08312 -10.28808 0.00000
4136.49 2.88859 2.88859 580.49927 400.87 0.00 157.38 -1.08312 -9.20515 0.00000
4139.48 2.56521 2.56521 519.11145 418.39 0.00 157.38 -1.08312 -8.24961 0.00000
4141.50 2.26417 2.26417 464.19205 427.01 0.00 157.38 -1.08312 -7.40650 0.00000
4145.30 2.83515 2.83515 784.65509 450.24 0.00 157.38 -2.52063 -13.51183 0.00000
4146.49 3.36400 3.36400 747.97205 487.42 0.00 157.38 -2.52063 -12.21875 0.00000
4149.48 3.33686 3.33686 691.90332 514.78 0.00 157.38 -2.52063 -11.07779 0.00000
4151.49 3.30916 3.30916 642.25085 532.69 0.00 157.38 -2.52063 -10.07106 0.00000
4155.30 2.99068 2.99068 441.38470 533.77 0.00 157.38 -1.89562 -6.20483 0.00000
4156.49 2.69448 2.69448 402.83270 520.63 0.00 157.38 -1.89562 -5.69787 0.00000
4159.50 3.30401 3.30401 410.61868 507.23 0.00 157.38 -1.89562 -5.25054 0.00000
4161.50 3.86882 3.86882 418.78418 496.35 0.00 157.38 -1.89562 -4.85585 0.00000
4165.30 4.46487 4.46487 702.26630 503.90 0.00 157.38 -3.08313 -10.16567 0.00000
4166.49 5.01819 5.01819 688.82971 526.44 0.00 157.38 -3.08313 -9.33243 0.00000
4169.48 5.24458 5.24458 664.40619 544.11 0.00 157.38 -3.08313 -8.59722 0.00000
4171.50 5.45482 5.45482 643.35925 557.02 0.00 157.38 -3.08313 -7.94850 0.00000
4175.31 5.21825 5.21825 432.99963 554.81 0.00 157.38 -2.33313 -3.80257 0.00000
4176.49 4.99940 4.99940 414.19659 539.37 0.00 157.38 -2.33313 -3.62969 0.00000
4179.48 5.33128 5.33128 422.80493 525.15 0.00 157.38 -2.33313 -3.47716 0.00000
4181.52 5.63977 5.63977 431.15204 513.60 0.00 157.38 -2.33313 -3.34256 0.00000
4185.30 5.59395 5.59395 494.72278 507.64 0.00 157.38 -2.64563 -4.71278 0.00000
4186.49 5.55210 5.55210 481.04059 505.32 0.00 157.38 -2.64563 -4.46958 0.00000
4189.49 5.98109 5.98109 491.33221 503.07 0.00 157.38 -2.64563 -4.25500 0.00000
4191.51 6.38037 6.38037 501.40924 502.28 0.00 157.38 -2.64563 -4.06566 0.00000
4195.30 5.81137 5.81137 223.07849 485.80 0.00 157.38 -1.58312 1.16391 0.00000
4196.49 5.28448 5.28448 213.30002 454.32 0.00 157.38 -1.58312 0.84073 0.00000
4199.48 5.24874 5.24874 225.27228 426.67 0.00 157.38 -1.58312 0.55557 0.00000
4201.49 5.21667 5.21667 235.81021 403.59 0.00 157.38 -1.58312 0.30396 0.00000
4205.30 5.04658 5.04658 138.24332 378.12 0.00 157.38 -1.14562 2.16651 0.00000
4206.49 4.88349 4.88349 149.11899 350.54 0.00 157.38 -1.14562 1.77685 0.00000
4209.48 5.26941 5.26941 184.14619 328.90 0.00 157.38 -1.14562 1.43303 0.00000
4211.49 5.62719 5.62719 215.88162 313.74 0.00 157.38 -1.14562 1.12966 0.00000
4215.30 5.14258 5.14258 105.41027 295.73 0.00 155.14 -0.70812 2.94653 0.00000
4216.49 4.69344 4.69344 104.48952 273.28 0.00 143.37 -0.70812 2.51657 0.00000
4219.49 4.21209 4.21209 99.59479 253.14 0.00 132.80 -0.70812 2.13720 0.00000
4221.52 3.76559 3.76559 94.23055 234.76 0.00 123.16 -0.70812 1.80245 0.00000
4225.30 4.21572 4.21572 -198.75050 200.99 0.00 105.44 0.72938 8.35636 0.00000
4226.49 4.63335 4.63335 -135.63406 157.67 0.00 82.72 0.72938 7.45906 0.00000
4229.49 5.00768 5.00768 -79.66367 126.46 0.00 66.34 0.72938 6.66734 0.00000
4231.49 5.35580 5.35580 -29.42141 105.17 0.00 55.17 0.72938 5.96875 0.00000
4235.30 4.94849 4.94849 -176.62088 80.67 0.00 42.32 1.41688 8.62809 0.00000
4236.49 4.57097 4.57097 -154.01956 51.73 0.00 27.14 1.41688 7.77971 0.00000
4239.48 4.28636 4.28636 -131.74936 28.84 0.00 15.13 1.41688 7.03114 0.00000
4241.50 4.02278 4.02278 -112.69709 11.06 0.00 5.80 1.41688 6.37064 0.00000
4245.30 4.28472 4.28472 -386.62051 -19.61 0.00 -10.29 2.79187 12.33931 0.00000
4246.50 4.52824 4.52824 -321.01660 -58.93 0.00 -30.91 2.79187 11.21608 0.00000
4249.48 4.84000 4.84000 -258.47986 -86.08 0.00 -45.16 2.79187 10.22500 0.00000
4251.50 5.12918 5.12918 -202.62373 -103.08 0.00 -54.08 2.79187 9.35051 0.00000
4255.30 4.66913 4.66913 -259.13977 -118.11 0.00 -61.96 3.10437 10.06787 0.00000
4256.49 4.24294 4.24294 -240.27351 -133.60 0.00 -70.09 3.10437 9.24864 0.00000
4259.48 4.39557 4.39557 -198.25035 -143.67 0.00 -75.37 3.10437 8.52578 0.00000
4261.50 4.53812 4.53812 -160.79237 -147.89 0.00 -77.59 3.10437 7.88797 0.00000
4265.30 4.73316 4.73316 -438.88782 -165.77 0.00 -86.96 4.47937 13.87666 0.00000
4266.49 4.91464 4.91464 -377.10965 -194.27 0.00 -101.91 4.47937 12.77109 0.00000
4269.48 4.92324 4.92324 -329.87320 -213.00 0.00 -111.74 4.47937 11.79560 0.00000
4271.50 4.93241 4.93241 -288.11783 -224.29 0.00 -117.67 4.47937 10.93486 0.00000
4275.29 4.50515 4.50515 -429.40695 -240.11 0.00 -125.97 5.16687 13.45112 0.00000
4276.49 4.11061 4.11061 -401.56274 -260.74 0.00 -136.79 5.16687 12.47650 0.00000
4279.49 4.06075 4.06075 -362.67792 -275.02 0.00 -144.28 5.16687 11.61654 0.00000
4281.51 4.01544 4.01544 -328.43097 -283.32 0.00 -148.63 5.16687 10.85775 0.00000
4285.30 3.67862 3.67862 -412.52032 -293.57 0.00 -154.01 5.60437 12.27280 0.00000
4286.49 3.36844 3.36844 -389.75189 -306.23 0.00 -157.38 5.60437 11.48827 0.00000
4289.49 3.49163 3.49163 -350.61218 -313.75 0.00 -157.38 5.60437 10.79605 0.00000
4291.51 3.60847 3.60847 -315.68591 -316.03 0.00 -157.38 5.60437 10.18526 0.00000
4295.30 2.91264 2.91264 -566.21686 -330.73 0.00 -157.38 6.66687 14.70883 0.00000
4296.50 2.26637 2.26637 -551.82458 -357.59 0.00 -157.38 6.66687 13.76271 0.00000
4299.49 2.26483 2.26483 -511.82758 -378.09 0.00 -157.38 6.66687 12.92790 0.00000
4301.50 2.26353 2.26353 -476.53308 -391.75 0.00 -157.38 6.66687 12.19131 0.00000
4305.30 2.58029 2.58029 -315.77893 -392.26 0.00 -157.38 6.16687 9.15902 0.00000
4306.50 2.87344 2.87344 -284.81058 -381.44 0.00 -157.38 6.16687 8.80700 0.00000
4309.48 3.17327 3.17327 -255.50986 -368.35 0.00 -157.38 6.16687 8.49639 0.00000
4311.50 3.45088 3.45088 -229.02951 -353.52 0.00 -157.38 6.16687 8.22233 0.00000
4315.30 2.97178 2.97178 -168.94821 -335.34 0.00 -157.38 5.85437 6.49154 0.00000
4316.49 2.52757 2.52757 -186.67227 -316.81 0.00 -157.38 5.85437 6.41657 0.00000
4319.48 2.32632 2.32632 -193.15732 -301.88 0.00 -157.38 5.85437 6.35043 0.00000
4321.50 2.13934 2.13934 -199.33127 -289.45 0.00 -151.85 5.85437 6.29207 0.00000
4325.30 2.30975 2.30975 -245.85580 -281.58 0.00 -147.72 6.10437 7.43175 0.00000
4326.50 2.46951 2.46951 -230.69183 -276.49 0.00 -145.05 6.10437 7.27559 0.00000
4329.48 2.13920 2.13920 -239.93243 -271.64 0.00 -142.51 6.10437 7.13779 0.00000
4331.51 1.83233 1.83233 -248.82660 -268.44 0.00 -140.83 6.10437 7.01622 0.00000
4335.30 1.42345 1.42345 -48.89182 -254.37 0.00 -133.45 5.16687 2.44203 0.00000
4336.49 1.04268 1.04268 -82.55566 -232.18 0.00 -121.80 5.16687 2.76259 0.00000
4339.48 1.38601 1.38601 -79.65280 -214.40 0.00 -112.48 5.16687 3.04545 0.00000
4341.51 1.70432 1.70432 -76.35361 -198.36 0.00 -104.06 5.16687 3.29502 0.00000
4345.30 2.17011 2.17011 221.31610 -166.49 0.00 -87.34 3.91687 -2.44064 0.00000
4346.49 2.60117 2.60117 206.10599 -121.76 0.00 -63.88 3.91687 -1.69270 0.00000
4349.56 2.39003 2.39003 164.29358 -85.65 0.00 -44.93 3.91687 -1.03275 0.00000
4351.49 2.20316 2.20316 127.37302 -58.42 0.00 -30.65 3.91687 -0.45045 0.00000
4355.29 1.73196 1.73196 251.62221 -29.25 0.00 -15.34 3.16687 -3.51017 0.00000
4356.49 1.29373 1.29373 192.88179 0.34 0.00 0.18 3.16687 -2.72464 0.00000
4359.48 0.88563 0.88563 140.02332 19.88 0.00 10.43 3.16687 -2.03152 0.00000
4361.50 0.50542 0.50542 92.41745 31.22 0.00 16.38 3.16687 -1.41995 0.00000
4365.30 1.07636 1.07636 351.21503 53.64 0.00 28.14 2.04187 -6.24062 0.00000
4366.49 1.60453 1.60453 329.79541 87.39 0.00 45.85 2.04187 -5.26621 0.00000
4369.49 1.21434 1.21434 269.79718 112.38 0.00 58.95 2.04187 -4.40643 0.00000
4371.52 0.85072 0.85072 215.92946 127.73 0.00 67.01 2.04187 -3.64781 0.00000
4375.30 0.62033 0.62033 301.38806 143.13 0.00 75.09 1.47938 -5.65858 0.00000
4376.49 0.40466 0.40466 250.72736 158.77 0.00 83.29 1.47938 -4.81882 0.00000
4379.49 0.87050 0.87050 237.52144 168.81 0.00 88.56 1.47938 -4.07786 0.00000
4381.49 1.30094 1.30094 226.80042 176.26 0.00 92.47 1.47938 -3.42407 0.00000
4385.30 1.90109 1.90109 685.32922 209.18 0.00 109.74 -0.52062 -12.37660 0.00000
4386.49 2.45700 2.45700 645.06140 262.83 0.00 137.89 -0.52062 -10.98178 0.00000
4389.49 2.12553 2.12553 570.07605 303.39 0.00 157.38 -0.52062 -9.75106 0.00000
4391.50 1.81819 1.81819 503.19901 330.83 0.00 157.38 -0.52062 -8.66512 0.00000
4395.30 1.81205 1.81205 371.14703 343.34 0.00 157.38 -0.14562 -5.92018 0.00000
4396.49 1.80458 1.80458 338.17929 344.67 0.00 157.38 -0.14562 -5.24082 0.00000
4399.48 2.17159 2.17159 327.02298 343.25 0.00 157.38 -0.14562 -4.64139 0.00000
4401.49 2.51183 2.51183 317.96640 340.81 0.00 157.38 -0.14562 -4.11247 0.00000
4405.32 3.08538 3.08538 680.44910 359.45 0.00 157.38 -1.70812 -11.09064 0.00000
4406.49 3.61747 3.61747 653.00525 395.60 0.00 157.38 -1.70812 -9.98681 0.00000
4409.49 3.41553 3.41553 596.56189 422.56 0.00 157.38 -1.70812 -9.01285 0.00000
4411.49 3.22715 3.22715 546.26978 440.07 0.00 157.38 -1.70812 -8.15347 0.00000
4415.30 2.96556 2.96556 354.37473 441.28 0.00 157.38 -1.08312 -4.41725 0.00000
4416.49 2.72233 2.72233 323.87170 429.26 0.00 157.38 -1.08312 -4.02500 0.00000
4419.49 3.28354 3.28354 334.19702 417.47 0.00 157.38 -1.08312 -3.67890 0.00000
4421.52 3.80415 3.80415 344.52783 408.28 0.00 157.38 -1.08312 -3.37351 0.00000
4425.06 3.48720 3.48720 316.38000 399.12 0.00 157.38 -1.08312 -3.10405 0.00000
4426.88 3.23856 3.23856 550.32697 403.15 0.00 157.38 -2.20813 -8.22659 0.00000
4429.48 3.08798 3.08798 509.11258 418.04 0.00 157.38 -2.20813 -7.51853 0.00000
4431.49 2.94749 2.94749 472.38116 426.59 0.00 157.38 -2.20813 -6.89378 0.00000
4434.96 2.66603 2.66603 432.41052 429.63 0.00 157.38 -2.20813 -6.34253 0.00000
4436.86 2.36391 2.36391 165.85579 414.28 0.00 157.38 -1.20812 -1.09142 0.00000
4439.49 2.79591 2.79591 187.25067 386.31 0.00 157.38 -1.20812 -1.10515 0.00000
4441.50 3.19621 3.19621 207.04681 364.06 0.00 157.38 -1.20812 -1.11726 0.00000
4444.93 2.89807 2.89807 193.24892 344.77 0.00 157.38 -1.20812 -1.12795 0.00000
4446.86 2.60823 2.60823 108.31886 321.95 0.00 157.38 -0.89562 0.35159 0.00000
4449.50 2.23490 2.23490 97.44221 296.18 0.00 155.38 -0.89562 0.20486 0.00000
4451.49 1.88791 1.88791 87.00076 272.18 0.00 142.79 -0.89562 0.07539 0.00000
4454.94 2.38835 2.38835 116.50562 252.13 0.00 132.27 -0.89562 -0.03885 0.00000
4456.87 2.83160 2.83160 28.26670 230.99 0.00 121.18 -0.39562 2.24271 0.00000
4459.49 3.22562 3.22562 62.07858 209.13 0.00 109.71 -0.39562 1.93232 0.00000
4461.49 3.59117 3.59117 92.77087 193.63 0.00 101.58 -0.39562 1.65844 0.00000
4464.93 3.19300 3.19300 85.25849 181.32 0.00 95.12 -0.39562 1.41679 0.00000
4466.88 2.79532 2.79532 -80.83095 160.25 0.00 84.07 0.29188 4.47930 0.00000
4469.48 2.59465 2.59465 -66.81619 132.71 0.00 69.62 0.29188 3.98666 0.00000
4471.51 2.40825 2.40825 -54.89905 109.94 0.00 57.68 0.29188 3.55198 0.00000
4474.93 2.83559 2.83559 -15.97673 92.84 0.00 48.70 0.29188 3.16844 0.00000
4476.87 3.20625 3.20625 -124.88168 73.63 0.00 38.63 0.91688 5.80796 0.00000
4479.50 3.54512 3.54512 -80.99581 52.86 0.00 27.73 0.91688 5.23253 0.00000
4481.51 3.85970 3.85970 -41.52514 39.43 0.00 20.69 0.91688 4.72481 0.00000
4484.92 3.59396 3.59396 -32.77718 30.42 0.00 15.96 0.91688 4.27682 0.00000
4486.88 3.29076 3.29076 -342.82745 4.75 0.00 2.49 2.29187 10.43300 0.00000
4489.48 2.82715 2.82715 -319.10730 -34.75 0.00 -18.23 2.29187 9.47522 0.00000
4491.49 2.39669 2.39669 -299.20435 -67.03 0.00 -35.17 2.29187 8.63012 0.00000
4494.93 2.82020 2.82020 -243.08345 -91.04 0.00 -47.76 2.29187 7.88444 0.00000
4496.87 3.24873 3.24873 9.18535 -94.09 0.00 -49.36 1.41688 3.05737 0.00000
4499.48 2.99735 2.99735 6.38280 -82.11 0.00 -43.07 1.41688 2.86437 0.00000
4501.50 2.76513 2.76513 3.41055 -71.87 0.00 -37.70 1.41688 2.69408 0.00000
4504.93 2.74925 2.74925 9.86094 -62.63 0.00 -32.86 1.41688 2.54382 0.00000
4506.88 2.63636 2.63636 -532.37054 -86.00 0.00 -45.12 3.79187 13.72741 0.00000
4509.48 2.19354 2.19354 -497.51889 -136.47 0.00 -71.59 3.79187 12.55852 0.00000
4511.49 1.78227 1.78227 -467.75427 -177.19 0.00 -92.96 3.79187 11.52715 0.00000
4514.93 1.82474 1.82474 -422.03394 -208.69 0.00 -109.48 3.79187 10.61711 0.00000
4516.88 1.89432 1.89432 -208.62186 -221.23 0.00 -116.06 3.04187 6.24061 0.00000
4519.49 1.94359 1.94359 -188.19337 -218.55 0.00 -114.65 3.04187 5.86429 0.00000
4521.53 1.98913 1.98913 -170.06905 -213.91 0.00 -112.22 3.04187 5.53224 0.00000
4524.93 2.08444 2.08444 -151.43083 -207.66 0.00 -108.94 3.04187 5.23925 0.00000
4526.87 2.14931 2.14931 -264.55542 -207.70 0.00 -108.96 3.60437 7.66088 0.00000
4529.51 1.97100 1.97100 -250.20703 -213.54 0.00 -112.03 3.60437 7.18365 0.00000
4531.52 1.80542 1.80542 -237.94254 -217.13 0.00 -113.91 3.60437 6.76255 0.00000
4534.95 1.88601 1.88601 -216.23987 -218.30 0.00 -114.53 3.60437 6.39100 0.00000
4536.86 1.91195 1.91195 -470.84628 -233.04 0.00 -122.26 4.79187 11.72125 0.00000
4539.51 1.98857 1.98857 -428.03778 -258.50 0.00 -135.61 4.79187 10.90603 0.00000
4541.50 2.06060 2.06060 -390.05319 -276.21 0.00 -144.90 4.79187 10.18671 0.00000
4544.93 2.09680 2.09680 -357.85062 -287.71 0.00 -150.94 4.79187 9.55202 0.00000
4546.86 2.15588 2.15588 -185.19269 -285.80 0.00 -149.94 4.16687 6.01406 0.00000
4549.49 1.80499 1.80499 -191.60403 -274.34 0.00 -143.93 4.16687 5.79674 0.00000
4551.50 1.48084 1.48084 -197.95908 -264.98 0.00 -139.01 4.16687 5.60499 0.00000
4554.93 0.97398 0.97398 -214.16711 -258.05 0.00 -135.38 4.16687 5.43579 0.00000
4556.87 0.49466 0.49466 -272.89096 -256.34 0.00 -134.48 4.35437 6.17989 0.00000
4559.51 0.53982 0.53982 -260.41461 -257.56 0.00 -135.12 4.35437 5.96512 0.00000
4561.49 0.58082 0.58082 -249.35046 -257.24 0.00 -134.95 4.35437 5.77562 0.00000
4564.93 0.89065 0.89065 -226.45239 -254.97 0.00 -133.76 4.35437 5.60841 0.00000
4566.88 1.19268 1.19268 -119.10864 -245.30 0.00 -128.69 3.97937 3.67411 0.00000
4569.49 1.33826 1.33826 -113.84454 -230.14 0.00 -120.74 3.97937 3.71002 0.00000
4571.50 1.47326 1.47326 -108.88559 -216.17 0.00 -113.41 3.97937 3.74171 0.00000
4574.93 1.84705 1.84705 -92.28552 -202.57 0.00 -106.27 3.97937 3.76967 0.00000
4576.86 2.20862 2.20862 9.65039 -183.60 0.00 -96.32 3.60437 2.00757 0.00000
4579.49 2.29605 2.29605 4.82959 -161.15 0.00 -84.54 3.60437 2.19543 0.00000
4581.50 2.37784 2.37784 0.79898 -141.86 0.00 -74.42 3.60437 2.36119 0.00000
4584.93 2.17756 2.17756 -15.83459 -126.05 0.00 -66.13 3.60437 2.50745 0.00000
4586.87 1.99926 1.99926 12.29498 -111.43 0.00 -58.46 3.41687 1.74311 0.00000
4589.48 1.55199 1.55199 -18.62572 -98.69 0.00 -51.78 3.41687 1.94003 0.00000
4591.51 1.13635 1.13635 -46.91643 -90.94 0.00 -47.71 3.41687 2.11377 0.00000
4594.93 1.24834 1.24834 -48.89937 -85.88 0.00 -45.05 3.41687 2.26708 0.00000
4596.89 1.38217 1.38217 122.56091 -71.44 0.00 -37.48 2.66687 -1.17118 0.00000
4599.48 1.27321 1.27321 95.65718 -50.20 0.00 -26.34 2.66687 -0.71965 0.00000
4601.51 1.17190 1.17190 71.67050 -34.45 0.00 -18.07 2.66687 -0.32123 0.00000
4604.96 1.47561 1.47561 69.37454 -22.10 0.00 -11.59 2.66687 0.03031 0.00000
4606.86 1.78495 1.78495 226.56949 -2.09 0.00 -1.10 1.97938 -2.93524 0.00000
4609.49 1.66753 1.66753 193.17989 22.85 0.00 11.98 1.97938 -2.35705 0.00000
4611.51 1.55862 1.55862 163.46429 41.14 0.00 21.58 1.97938 -1.84689 0.00000
4614.94 1.40108 1.40108 134.29526 53.81 0.00 28.23 1.97938 -1.39674 0.00000
4616.85 1.27966 1.27966 252.34346 70.22 0.00 36.84 1.35438 -3.97749 0.00000
4619.48 1.18824 1.18824 217.84579 89.62 0.00 47.02 1.35438 -3.35021 0.00000
4621.49 1.10288 1.10288 187.18153 102.90 0.00 53.98 1.35438 -2.79673 0.00000
4624.93 1.31626 1.31626 173.98218 112.04 0.00 58.78 1.35438 -2.30837 0.00000
4626.87 1.51809 1.51809 191.57434 120.36 0.00 63.14 1.22938 -2.47304 0.00000
4629.48 1.90134 1.90134 189.06282 128.59 0.00 67.46 1.22938 -2.03747 0.00000
4631.51 2.25725 2.25725 187.69817 135.63 0.00 71.15 1.22938 -1.65313 0.00000
4634.92 2.11210 2.11210 164.45343 140.39 0.00 73.65 1.22938 -1.31401 0.00000
4636.87 2.02677 2.02677 431.87732 158.95 0.00 83.39 -0.02062 -6.97067 0.00000
4639.50 1.61714 1.61714 372.96783 187.59 0.00 98.41 -0.02062 -6.15302 0.00000
4641.51 1.23656 1.23656 320.06982 206.29 0.00 108.22 -0.02062 -5.43156 0.00000
4644.94 1.76587 1.76587 314.92108 219.37 0.00 115.09 -0.02062 -4.79498 0.00000
4646.86 2.23087 2.23087 167.33867 221.93 0.00 116.43 0.60438 -1.25535 0.00000
4649.48 2.70723 2.70723 179.70190 216.24 0.00 113.44 0.60438 -1.03656 0.00000
4651.49 3.14904 3.14904 191.64246 212.64 0.00 111.55 0.60438 -0.84351 0.00000
4654.93 3.20869 3.20869 186.32912 209.86 0.00 110.09 0.60438 -0.67317 0.00000
4656.89 3.32005 3.32005 498.93073 225.48 0.00 118.29 -0.77062 -7.07434 0.00000
4659.49 2.87152 2.87152 441.80377 254.29 0.00 133.40 -0.77062 -6.33273 0.00000
4661.50 2.45527 2.45527 390.41412 273.33 0.00 143.39 -0.77062 -5.67836 0.00000
4664.93 2.72337 2.72337 375.56897 286.23 0.00 150.16 -0.77062 -5.10098 0.00000
4666.88 2.95247 2.95247 247.75882 289.22 0.00 151.73 -0.27062 -2.20917 0.00000
4669.48 3.35249 3.35249 256.01288 284.83 0.00 149.43 -0.27062 -1.98111 0.00000
4671.50 3.72436 3.72436 264.20343 281.92 0.00 147.90 -0.27062 -1.77987 0.00000
4674.93 3.74447 3.74447 256.64557 279.39 0.00 146.57 -0.27062 -1.60232 0.00000
4676.88 3.82689 3.82689 610.43457 297.53 0.00 156.09 -1.83312 -8.89050 0.00000
4679.49 3.51570 3.51570 555.64386 331.12 0.00 157.38 -1.83312 -8.06022 0.00000
4681.52 3.22679 3.22679 506.61136 354.65 0.00 157.38 -1.83312 -7.32762 0.00000
4684.93 3.69088 3.69088 497.86020 372.01 0.00 157.38 -1.83312 -6.68121 0.00000
4686.89 4.05765 4.05765 130.73460 365.22 0.00 157.38 -0.27062 1.33401 0.00000
4689.48 4.04318 4.04318 139.10184 338.13 0.00 157.38 -0.27062 1.14523 0.00000
4691.52 4.03110 4.03110 146.51700 315.15 0.00 157.38 -0.27062 0.97866 0.00000
4694.94 4.40075 4.40075 171.31532 296.77 0.00 155.69 -0.27062 0.83168 0.00000
4696.88 4.77564 4.77564 367.06421 293.52 0.00 153.99 -1.02062 -2.87153 0.00000
4699.48 4.24013 4.24013 330.90729 300.05 0.00 157.38 -1.02062 -2.65377 0.00000
4701.49 3.74390 3.74390 297.86584 301.73 0.00 157.38 -1.02062 -2.46164 0.00000
4704.93 3.28160 3.28160 267.53787 299.50 0.00 157.12 -1.02062 -2.29211 0.00000
4706.87 2.81487 2.81487 9.24879 280.54 0.00 147.18 -0.02062 2.62219 0.00000
4709.51 3.26817 3.26817 45.93134 250.78 0.00 131.56 -0.02062 2.31127 0.00000
4711.52 3.68882 3.68882 79.29091 228.65 0.00 119.95 -0.02062 2.03693 0.00000
4714.93 3.74922 3.74922 93.80904 211.93 0.00 111.18 -0.02062 1.79486 0.00000
4716.87 3.80156 3.80156 77.98555 197.10 0.00 103.40 0.10438 2.17686 0.00000
4719.49 3.35651 3.35651 68.32647 182.52 0.00 95.75 0.10438 1.93304 0.00000
4721.52 2.94404 2.94404 58.85460 168.53 0.00 88.41 0.10438 1.71790 0.00000
4724.93 3.33669 3.33669 86.81325 157.27 0.00 82.51 0.10438 1.52808 0.00000
4726.87 3.65811 3.65811 -132.71873 136.07 0.00 71.38 1.16688 6.42308 0.00000
4729.48 3.95417 3.95417 -88.82574 107.03 0.00 56.15 1.16688 5.80470 0.00000
4731.51 4.22959 4.22959 -49.41522 86.30 0.00 45.28 1.16688 5.25908 0.00000
4734.93 4.21218 4.21218 -27.14209 71.65 0.00 37.59 1.16688 4.77764 0.00000
4736.86 4.16789 4.16789 -208.99530 49.33 0.00 25.88 2.04187 8.52196 0.00000
4739.48 3.54030 3.54030 -202.52605 19.32 0.00 10.13 2.04187 7.75959 0.00000
4741.49 2.95891 2.95891 -198.14433 -6.52 0.00 -3.42 2.04187 7.08692 0.00000
4744.93 2.46507 2.46507 -193.35924 -28.79 0.00 -15.10 2.04187 6.49338 0.00000
4746.87 1.96858 1.96858 -406.46423 -60.68 0.00 -31.84 2.97937 10.43659 0.00000
4749.48 2.08140 2.08140 -358.93744 -98.57 0.00 -51.71 2.97937 9.55927 0.00000
4751.50 2.18679 2.18679 -316.72174 -126.72 0.00 -66.48 2.97937 8.78516 0.00000
4754.94 2.16625 2.16625 -284.92218 -147.20 0.00 -77.22 2.97937 8.10213 0.00000
4756.86 2.10855 2.10855 -473.17474 -174.48 0.00 -91.53 3.91687 11.96636 0.00000
4759.48 1.68815 1.68815 -447.89795 -208.13 0.00 -109.19 3.91687 11.01936 0.00000
4761.49 1.29781 1.29781 -426.52597 -235.08 0.00 -123.33 3.91687 10.18377 0.00000
4764.93 1.55615 1.55615 -378.73608 -254.79 0.00 -133.67 3.91687 9.44649 0.00000
4766.87 1.77752 1.77752 -436.94330 -272.80 0.00 -143.11 4.35437 10.88050 0.00000
4769.48 2.13636 2.13636 -382.86539 -288.93 0.00 -151.58 4.35437 10.11272 0.00000
4771.50 2.46884 2.46884 -334.38858 -297.13 0.00 -155.88 4.35437 9.43527 0.00000
4774.93 1.93868 1.93868 -331.14395 -301.32 0.00 -157.38 4.35437 8.83751 0.00000
4776.87 1.39868 1.39868 -603.33533 -320.84 0.00 -157.38 5.54187 13.96817 0.00000
4779.48 0.82030 0.82030 -583.51392 -352.91 0.00 -157.38 5.54187 12.97684 0.00000
4781.49 0.28246 0.28246 -567.34406 -379.09 0.00 -157.38 5.54187 12.10213 0.00000
4784.94 0.70579 0.70579 -509.97803 -397.86 0.00 -157.38 5.54187 11.33034 0.00000
4786.86 1.10496 1.10496 -415.24796 -405.48 0.00 -157.38 5.35437 9.75596 0.00000
4789.49 1.35582 1.35582 -378.35028 -404.46 0.00 -157.38 5.35437 9.23812 0.00000
4791.49 1.58867 1.58867 -345.24188 -399.44 0.00 -157.38 5.35437 8.78121 0.00000
4794.93 0.98395 0.98395 -354.91672 -393.63 0.00 -157.38 5.35437 8.37805 0.00000
4796.86 0.39372 0.39372 -523.40808 -398.99 0.00 -157.38 6.04187 11.29806 0.00000
4799.48 -0.05772 -0.05772 -515.39520 -413.15 0.00 -157.38 6.04187 10.67968 0.00000
4801.52 -0.47762 -0.47762 -509.36050 -424.83 0.00 -157.38 6.04187 10.13406 0.00000
4804.93 -0.03343 -0.03343 -464.93042 -432.16 0.00 -157.38 6.04187 9.65262 0.00000
4806.62 0.37708 0.37708 -424.83627 -433.66 0.00 -157.38 6.04187 9.22783 0.00000
4809.85 0.74025 0.74025 25.11667 -406.15 0.00 -157.38 4.22937 0.21698 0.00000
4811.50 1.07723 1.07723 18.63382 -355.79 0.00 -157.38 4.22937 0.68903 0.00000
4814.94 0.55434 0.55434 -26.45718 -314.40 0.00 -157.38 4.22937 1.10554 0.00000
4816.50 0.06801 0.06801 -67.44150 -282.93 0.00 -148.43 4.22937 1.47304 0.00000
4819.86 -0.42366 -0.42366 -321.01840 -272.50 0.00 -142.96 5.16687 6.26423 0.00000
4821.49 -0.88162 -0.88162 -336.80374 -279.13 0.00 -146.44 5.16687 6.13512 0.00000
4824.93 -0.38117 -0.38117 -307.31442 -284.18 0.00 -149.09 5.16687 6.02121 0.00000
4826.50 0.08139 0.08139 -280.28659 -285.32 0.00 -149.68 5.16687 5.92070 0.00000
4829.86 -0.03529 -0.03529 361.60510 -246.97 0.00 -129.56 2.35437 -7.56873 0.00000
4831.49 -0.14498 -0.14498 300.30371 -178.97 0.00 -93.89 2.35437 -6.40130 0.00000
4834.93 -0.48660 -0.48660 234.46219 -126.46 0.00 -66.34 2.35437 -5.37122 0.00000
4836.49 -0.80535 -0.80535 175.53529 -87.47 0.00 -45.89 2.35437 -4.46233 0.00000
4839.85 -0.55260 -0.55260 -22.35677 -68.17 0.00 -35.76 3.10437 -0.08684 0.00000
4841.49 -0.31973 -0.31973 -29.19987 -63.18 0.00 -33.14 3.10437 0.28860 0.00000
4844.93 0.17834 0.17834 -21.19331 -58.71 0.00 -30.80 3.10437 0.61986 0.00000
4846.49 0.63925 0.63925 -13.09941 -53.82 0.00 -28.24 3.10437 0.91216 0.00000
4849.85 1.21317 1.21317 645.30414 -10.30 0.00 -5.40 0.29188 -12.23067 0.00000
4851.49 1.74469 1.74469 600.10175 64.17 0.00 33.66 0.29188 -10.75743 0.00000
4854.93 1.31671 1.31671 517.16254 122.34 0.00 64.18 0.29188 -9.45751 0.00000
4856.50 0.91905 0.91905 443.01941 164.43 0.00 86.26 0.29188 -8.31052 0.00000
4859.85 0.62755 0.62755 280.39026 187.64 0.00 98.44 0.72938 -5.21392 0.00000
4861.49 0.35602 0.35602 233.79469 195.81 0.00 102.73 0.72938 -4.51471 0.00000
4864.93 0.91213 0.91213 230.87434 200.11 0.00 104.98 0.72938 -3.89776 0.00000
4866.51 1.42739 1.42739 229.47757 203.64 0.00 106.84 0.72938 -3.35339 0.00000
4869.86 1.33482 1.33482 859.50781 243.74 0.00 127.87 -2.14563 -16.57159 0.00000
4871.49 1.24753 1.24753 773.85339 311.15 0.00 157.38 -2.14563 -14.87442 0.00000
4874.93 0.96671 0.96671 688.49390 360.56 0.00 157.38 -2.14563 -13.37691 0.00000
4876.51 0.70526 0.70526 612.52063 394.67 0.00 157.38 -2.14563 -12.05558 0.00000
4879.85 1.32600 1.32600 357.64783 405.31 0.00 157.38 -1.14562 -6.12500 0.00000
4881.49 1.90139 1.90139 357.14764 399.67 0.00 157.38 -1.14562 -5.53919 0.00000
4884.93 2.11854 2.11854 342.76025 393.82 0.00 157.38 -1.14562 -5.02230 0.00000
4886.48 2.32031 2.32031 330.55322 387.10 0.00 157.38 -1.14562 -4.56622 0.00000
4889.85 2.74025 2.74025 1031.80566 421.70 0.00 157.38 -4.20813 -18.75571 0.00000
4891.49 3.12877 3.12877 968.30408 489.74 0.00 157.38 -4.20813 -17.04423 0.00000
4894.93 2.77645 2.77645 878.90643 540.78 0.00 157.38 -4.20813 -15.53410 0.00000
4896.50 2.45008 2.45008 799.28229 575.88 0.00 157.38 -4.20813 -14.20163 0.00000
4899.86 2.18003 2.18003 501.17990 584.62 0.00 157.38 -3.20813 -8.26122 0.00000
4901.50 1.92812 1.92812 460.55310 572.42 0.00 157.38 -3.20813 -7.66673 0.00000
4904.93 2.02836 2.02836 440.18628 558.06 0.00 157.38 -3.20813 -7.14219 0.00000
4906.49 2.10598 2.10598 421.69647 543.10 0.00 157.38 -3.20813 -6.67936 0.00000
4909.85 2.03816 2.03816 541.77966 535.88 0.00 157.38 -3.83313 -9.24892 0.00000
4911.50 1.97433 1.97433 508.13260 534.60 0.00 157.38 -3.83313 -8.61177 0.00000
4914.93 2.40621 2.40621 501.87790 531.12 0.00 157.38 -3.83313 -8.04958 0.00000
4916.50 2.80632 2.80632 497.27243 527.41 0.00 157.38 -3.83313 -7.55352 0.00000
4919.85 2.61600 2.61600 381.36319 517.04 0.00 157.38 -3.45813 -5.32906 0.00000
4921.49 2.43774 2.43774 362.24094 499.96 0.00 157.38 -3.45813 -5.10895 0.00000
4924.93 2.96893 2.96893 378.41583 484.71 0.00 157.38 -3.45813 -4.91473 0.00000
4926.50 3.46227 3.46227 393.87021 473.11 0.00 157.38 -3.45813 -4.74336 0.00000
4929.85 3.54200 3.54200 490.49826 469.47 0.00 157.38 -3.89563 -6.67671 0.00000
4931.50 3.61641 3.61641 478.36469 471.23 0.00 157.38 -3.89563 -6.34953 0.00000
4934.93 3.29082 3.29082 448.87930 470.34 0.00 157.38 -3.89563 -6.06083 0.00000
4936.51 2.98808 2.98808 422.12027 466.24 0.00 157.38 -3.89563 -5.80610 0.00000
4939.86 2.62010 2.62010 193.55127 447.60 0.00 157.38 -3.02063 -1.41222 0.00000
4941.49 2.27893 2.27893 186.25777 417.28 0.00 157.38 -3.02063 -1.60144 0.00000
4944.93 2.65438 2.65438 212.29372 391.64 0.00 157.38 -3.02063 -1.76840 0.00000
4946.52 3.00221 3.00221 236.06090 371.94 0.00 157.38 -3.02063 -1.91572 0.00000
4949.85 2.96865 2.96865 69.15958 346.13 0.00 157.38 -2.27063 1.52782 0.00000
4951.49 2.93779 2.93779 89.12842 314.72 0.00 157.38 -2.27063 1.08095 0.00000
4954.93 3.45023 3.45023 132.65190 290.74 0.00 152.53 -2.27063 0.68664 0.00000
4956.52 3.92624 3.92624 172.20016 274.47 0.00 143.99 -2.27063 0.33873 0.00000
4959.85 3.77276 3.77276 8.03906 252.78 0.00 132.61 -1.52062 3.60528 0.00000
4961.49 3.62896 3.62896 30.08299 225.28 0.00 118.19 -1.52062 3.00223 0.00000
4964.94 3.27904 3.27904 38.82765 202.83 0.00 106.41 -1.52062 2.47013 0.00000
4966.52 2.95415 2.95415 45.76904 183.95 0.00 96.50 -1.52062 2.00063 0.00000
4969.87 2.70057 2.70057 -160.92993 155.53 0.00 81.59 -0.58312 6.05328 0.00000
4971.49 2.46464 2.46464 -134.77858 119.84 0.00 62.87 -0.58312 5.27252 0.00000
4974.93 2.55802 2.55802 -97.22923 92.09 0.00 48.31 -0.58312 4.58362 0.00000
4976.49 2.64516 2.64516 -63.86942 71.78 0.00 37.66 -0.58312 3.97577 0.00000
4979.85 3.09160 3.09160 -102.46056 53.55 0.00 28.09 -0.20812 5.22620 0.00000
4981.49 3.50631 3.50631 -51.86641 38.18 0.00 20.03 -0.20812 4.58686 0.00000
4984.93 3.03978 3.03978 -47.18243 27.86 0.00 14.61 -0.20812 4.02275 0.00000
4986.49 2.60708 2.60708 -44.06019 19.21 0.00 10.08 -0.20812 3.52500 0.00000
4989.85 2.73731 2.73731 -402.66907 -9.33 0.00 -4.89 1.47938 11.12625 0.00000
4991.50 2.85847 2.85847 -342.37674 -52.05 0.00 -27.31 1.47938 9.99132 0.00000
4994.93 3.20219 3.20219 -277.81064 -82.41 0.00 -43.23 1.47938 8.98992 0.00000
4996.49 3.52153 3.52153 -220.07007 -102.00 0.00 -53.51 1.47938 8.10632 0.00000
4999.85 3.61355 3.61355 -321.17139 -121.84 0.00 -63.92 2.10437 10.30462 0.00000
