% Controller vpitch
% Log with 2000 values (sample interval=0.01ms)
% Uses separate derivative input (gyro) 0
% data format:
% 1   Time (ms)
% 2   Control reference input (setpoint) (r)
% 3   after pre-filter (r2)
% 4   error after Kp (ep)
% 5   error after Kp and lead/lag, before I (up)
% 6   integrator output (ui)
% 7   Controller output (u) after limiter
% 8   measurement (m)
% 9   measurement after filter (m2)
% 10  Feed forward output (uf)
% 
2.84 10.00000 10.00000 890.11652 1049.22 0.00 201.91 -9.64563 -8.54409 0.00000
4.84 10.00000 10.00000 896.33679 1030.87 0.00 201.91 -9.64563 -8.67368 0.00000
8.66 10.00000 10.00000 215.70758 975.00 0.00 201.91 -6.64563 5.50609 0.00000
9.84 10.00000 10.00000 284.32892 889.71 0.00 201.91 -6.64563 4.07648 0.00000
12.84 10.00000 10.00000 344.87714 822.05 0.00 201.91 -6.64563 2.81506 0.00000
14.85 10.00000 10.00000 398.30209 769.05 0.00 201.91 -6.64563 1.70204 0.00000
18.66 10.00000 10.00000 494.49744 731.09 0.00 201.91 -1.89562 -0.30203 0.00000
19.85 10.00000 10.00000 503.49652 703.79 0.00 201.91 -1.89562 -0.48951 0.00000
22.84 10.00000 10.00000 511.43689 680.69 0.00 201.91 -1.89562 -0.65493 0.00000
24.88 10.00000 10.00000 518.44312 661.19 0.00 201.91 -1.89562 -0.80090 0.00000
28.65 10.00000 10.00000 -47.13963 611.13 0.00 201.91 0.60438 10.98208 0.00000
29.84 10.00000 10.00000 11.46387 537.13 0.00 201.91 0.60438 9.76117 0.00000
32.84 10.00000 10.00000 63.17285 478.33 0.00 201.91 0.60438 8.68390 0.00000
34.85 10.00000 10.00000 108.79843 432.17 0.00 201.91 0.60438 7.73337 0.00000
38.66 5.69327 5.69327 -65.78716 383.86 0.00 201.91 5.60437 7.06384 0.00000
39.85 5.63575 5.63575 -60.30663 331.28 0.00 201.91 5.60437 6.89214 0.00000
42.84 5.49177 5.49177 -59.94553 285.23 0.00 191.97 5.60437 6.74063 0.00000
44.88 5.34825 5.34825 -60.41766 244.60 0.00 164.62 5.60437 6.60695 0.00000
48.66 -0.27757 -0.27757 -104.21022 206.14 0.00 138.74 9.60437 1.89348 0.00000
49.85 -0.26328 -0.26328 -147.06815 167.10 0.00 112.47 9.60437 2.80064 0.00000
52.84 -0.30612 -0.30612 -187.54529 127.76 0.00 85.99 9.60437 3.60108 0.00000
54.86 -0.34877 -0.34877 -223.49368 88.55 0.00 59.60 9.60437 4.30735 0.00000
58.66 -3.79454 -3.79454 -976.27368 7.56 0.00 5.09 12.04187 16.54449 0.00000
59.85 -3.80342 -3.80342 -951.27319 -106.71 0.00 -71.82 12.04187 16.01477 0.00000
62.84 -3.81408 -3.81408 -929.34900 -204.79 0.00 -137.83 12.04187 15.54736 0.00000
64.85 -3.82465 -3.82465 -910.06055 -288.89 0.00 -194.44 12.04187 15.13494 0.00000
68.66 -10.00000 -10.00000 -1311.48450 -385.58 0.00 -201.91 17.54188 17.32259 0.00000
69.85 -10.00000 -10.00000 -1312.72229 -494.59 0.00 -201.91 17.54188 17.34838 0.00000
72.84 -10.00000 -10.00000 -1313.81470 -590.90 0.00 -201.91 17.54188 17.37114 0.00000
74.87 -10.00000 -10.00000 -1314.77856 -676.01 0.00 -201.91 17.54188 17.39122 0.00000
78.66 -10.00000 -10.00000 -980.69092 -731.50 0.00 -201.91 21.04188 10.43106 0.00000
79.85 -10.00000 -10.00000 -1040.61035 -764.35 0.00 -201.91 21.04188 11.67938 0.00000
82.84 -10.00000 -10.00000 -1093.48059 -799.96 0.00 -201.91 21.04188 12.78085 0.00000
84.85 -10.00000 -10.00000 -1140.13074 -837.23 0.00 -201.91 21.04188 13.75272 0.00000
88.66 -10.00000 -10.00000 -1810.23376 -912.29 0.00 -201.91 23.79188 27.71320 0.00000
89.85 -10.00000 -10.00000 -1788.08899 -1016.62 0.00 -201.91 23.79188 27.25185 0.00000
92.84 -10.00000 -10.00000 -1768.54944 -1106.24 0.00 -201.91 23.79188 26.84478 0.00000
94.84 -10.00000 -10.00000 -1751.30896 -1183.14 0.00 -201.91 23.79188 26.48560 0.00000
98.65 -10.00000 -10.00000 -2150.62598 -1273.47 0.00 -201.91 25.60438 34.80471 0.00000
99.84 -10.00000 -10.00000 -2098.67065 -1373.61 0.00 -201.91 25.60438 33.72231 0.00000
102.84 -10.00000 -10.00000 -2052.82764 -1456.22 0.00 -201.91 25.60438 32.76724 0.00000
104.84 -10.00000 -10.00000 -2012.37817 -1524.03 0.00 -201.91 25.60438 31.92455 0.00000
108.66 -10.00000 -10.00000 -2619.92285 -1617.22 0.00 -201.91 28.41688 44.58173 0.00000
109.85 -10.00000 -10.00000 -2528.63818 -1729.81 0.00 -201.91 28.41688 42.67996 0.00000
112.84 -10.00000 -10.00000 -2448.09302 -1819.05 0.00 -201.91 28.41688 41.00194 0.00000
114.85 -10.00000 -10.00000 -2377.02393 -1888.88 0.00 -201.91 28.41688 39.52133 0.00000
118.66 -10.00000 -10.00000 -2471.55103 -1951.87 0.00 -201.91 29.10438 41.49065 0.00000
119.85 -10.00000 -10.00000 -2401.60400 -2008.89 0.00 -201.91 29.10438 40.03342 0.00000
122.84 -10.00000 -10.00000 -2339.88574 -2051.46 0.00 -201.91 29.10438 38.74762 0.00000
124.86 -10.00000 -10.00000 -2285.42871 -2082.19 0.00 -201.91 29.10438 37.61310 0.00000
128.65 -10.00000 -10.00000 -2194.49561 -2100.75 0.00 -201.91 28.91688 35.71866 0.00000
129.84 -10.00000 -10.00000 -2156.08447 -2109.52 0.00 -201.91 28.91688 34.91843 0.00000
132.84 -10.00000 -10.00000 -2122.19238 -2113.01 0.00 -201.91 28.91688 34.21234 0.00000
134.85 -10.00000 -10.00000 -2092.28760 -2112.33 0.00 -201.91 28.91688 33.58932 0.00000
138.65 -10.00000 -10.00000 -2451.84229 -2131.12 0.00 -201.91 30.60438 41.08005 0.00000
139.85 -10.00000 -10.00000 -2392.68530 -2165.37 0.00 -201.91 30.60438 39.84761 0.00000
142.84 -10.00000 -10.00000 -2340.48779 -2189.04 0.00 -201.91 30.60438 38.76016 0.00000
144.84 -10.00000 -10.00000 -2294.43164 -2204.15 0.00 -201.91 30.60438 37.80066 0.00000
148.66 -10.00000 -10.00000 -1896.44019 -2191.36 0.00 -201.91 29.04188 29.50917 0.00000
149.85 -10.00000 -10.00000 -1893.80127 -2156.51 0.00 -201.91 29.04188 29.45419 0.00000
152.84 -10.00000 -10.00000 -1891.47290 -2125.47 0.00 -201.91 29.04188 29.40569 0.00000
154.85 -10.00000 -10.00000 -1889.41846 -2097.82 0.00 -201.91 29.04188 29.36288 0.00000
158.65 -10.00000 -10.00000 -1658.89966 -2059.74 0.00 -201.91 28.04188 24.56041 0.00000
159.85 -10.00000 -10.00000 -1678.55859 -2013.74 0.00 -201.91 28.04188 24.96997 0.00000
162.84 -10.00000 -10.00000 -1695.90527 -1975.32 0.00 -201.91 28.04188 25.33136 0.00000
164.85 -10.00000 -10.00000 -1711.21069 -1943.35 0.00 -201.91 28.04188 25.65022 0.00000
168.64 -10.00000 -10.00000 -1953.42188 -1930.29 0.00 -201.91 29.04188 30.69629 0.00000
169.84 -10.00000 -10.00000 -1944.07910 -1932.46 0.00 -201.91 29.04188 30.50165 0.00000
172.84 -10.00000 -10.00000 -1935.83569 -1933.34 0.00 -201.91 29.04188 30.32991 0.00000
174.86 -10.00000 -10.00000 -1928.56201 -1933.21 0.00 -201.91 29.04188 30.17838 0.00000
178.66 -10.00000 -10.00000 -2271.37573 -1952.83 0.00 -201.91 25.60438 37.32033 0.00000
179.84 -10.00000 -10.00000 -2205.21460 -1986.41 0.00 -201.91 25.60438 35.94197 0.00000
182.83 -10.00000 -10.00000 -2146.83691 -2008.72 0.00 -201.91 25.60438 34.72577 0.00000
184.84 -10.00000 -10.00000 -2095.32715 -2021.94 0.00 -201.91 25.60438 33.65265 0.00000
188.65 -10.00000 -10.00000 -1463.81836 -1993.42 0.00 -201.91 23.04188 20.49622 0.00000
189.85 -10.00000 -10.00000 -1478.19324 -1931.96 0.00 -201.91 23.04188 20.79569 0.00000
192.84 -10.00000 -10.00000 -1490.87732 -1879.32 0.00 -201.91 23.04188 21.05994 0.00000
194.85 -10.00000 -10.00000 -1502.06873 -1834.28 0.00 -201.91 23.04188 21.29310 0.00000
198.65 -10.00000 -10.00000 -1240.35535 -1779.80 0.00 -201.91 21.85438 15.84074 0.00000
199.85 -10.00000 -10.00000 -1274.31445 -1718.34 0.00 -201.91 21.85438 16.54822 0.00000
202.84 -10.00000 -10.00000 -1304.27820 -1667.86 0.00 -201.91 21.85438 17.17246 0.00000
204.85 -10.00000 -10.00000 -1330.71716 -1626.64 0.00 -201.91 21.85438 17.72327 0.00000
208.66 -10.00000 -10.00000 -1388.80664 -1595.24 0.00 -201.91 17.04188 18.93347 0.00000
209.85 -10.00000 -10.00000 -1378.12427 -1570.33 0.00 -201.91 17.04188 18.71092 0.00000
212.84 -10.00000 -10.00000 -1368.69873 -1547.16 0.00 -201.91 17.04188 18.51456 0.00000
214.86 -10.00000 -10.00000 -1360.38208 -1525.68 0.00 -201.91 17.04188 18.34129 0.00000
218.65 -10.00000 -10.00000 -652.63184 -1464.60 0.00 -201.91 13.97937 3.59650 0.00000
219.85 -10.00000 -10.00000 -711.26404 -1372.52 0.00 -201.91 13.97937 4.81800 0.00000
222.84 -10.00000 -10.00000 -762.99829 -1297.77 0.00 -201.91 13.97937 5.89580 0.00000
224.85 -10.00000 -10.00000 -808.64612 -1237.54 0.00 -201.91 13.97937 6.84679 0.00000
228.66 -10.00000 -10.00000 -1112.39160 -1204.95 0.00 -201.91 10.16687 13.17482 0.00000
229.85 -10.00000 -10.00000 -1095.40527 -1193.06 0.00 -201.91 10.16687 12.82094 0.00000
232.84 -10.00000 -10.00000 -1080.41724 -1180.69 0.00 -201.91 10.16687 12.50869 0.00000
234.85 -10.00000 -10.00000 -1067.19263 -1168.12 0.00 -201.91 10.16687 12.23318 0.00000
238.69 -10.00000 -10.00000 -1433.34436 -1177.78 0.00 -201.91 6.85437 19.86134 0.00000
239.85 -10.00000 -10.00000 -1359.89319 -1203.53 0.00 -201.91 6.85437 18.33111 0.00000
242.84 -10.00000 -10.00000 -1295.08337 -1218.11 0.00 -201.91 6.85437 16.98090 0.00000
244.86 -10.00000 -10.00000 -1237.89819 -1223.80 0.00 -201.91 6.85437 15.78955 0.00000
248.67 -10.00000 -10.00000 -1165.02588 -1221.17 0.00 -201.91 1.79188 14.27137 0.00000
249.85 -10.00000 -10.00000 -1094.55322 -1210.42 0.00 -201.91 1.79188 12.80319 0.00000
252.84 -10.00000 -10.00000 -1032.37158 -1193.13 0.00 -201.91 1.79188 11.50774 0.00000
254.84 -10.00000 -10.00000 -977.50543 -1170.99 0.00 -201.91 1.79188 10.36470 0.00000
258.66 -7.94126 -7.94126 -301.39240 -1108.46 0.00 -201.91 -0.52062 -1.66225 0.00000
259.85 -7.92140 -7.92140 -306.88611 -1013.83 0.00 -201.91 -0.52062 -1.52794 0.00000
262.84 -8.03833 -8.03833 -318.18674 -931.33 0.00 -201.91 -0.52062 -1.40944 0.00000
264.85 -8.15533 -8.15533 -328.82233 -859.82 0.00 -201.91 -0.52062 -1.30487 0.00000
268.66 0.91824 0.91824 424.87219 -753.01 0.00 -201.91 -6.89563 -7.93326 0.00000
269.85 1.00271 1.00271 423.06714 -614.54 0.00 -201.91 -6.89563 -7.81118 0.00000
272.84 1.14740 1.14740 424.84167 -492.37 0.00 -201.91 -6.89563 -7.70347 0.00000
274.86 1.29029 1.29029 427.13809 -384.33 0.00 -201.91 -6.89563 -7.60843 0.00000
278.67 4.70855 4.70855 1144.65967 -246.65 0.00 -166.01 -9.33313 -19.13853 0.00000
279.85 4.68986 4.68986 1088.39087 -86.28 0.00 -58.07 -9.33313 -17.98495 0.00000
282.84 4.66799 4.66799 1038.48352 48.98 0.00 32.97 -9.33313 -16.96708 0.00000
284.86 4.64609 4.64609 994.32257 162.80 0.00 109.57 -9.33313 -16.06896 0.00000
288.65 9.15188 9.15188 1887.26880 313.15 0.00 201.91 -12.45813 -30.16621 0.00000
289.85 9.25006 9.25006 1791.98218 492.73 0.00 201.91 -12.45813 -28.08290 0.00000
292.84 9.29927 9.29927 1706.10974 640.54 0.00 201.91 -12.45813 -26.24469 0.00000
294.88 9.34792 9.34792 1630.59119 761.46 0.00 201.91 -12.45813 -24.62273 0.00000
298.66 10.00000 10.00000 1787.14050 872.92 0.00 201.91 -18.27062 -27.23209 0.00000
299.85 10.00000 10.00000 1736.53381 977.49 0.00 201.91 -18.27062 -26.17779 0.00000
302.85 10.00000 10.00000 1691.88098 1064.17 0.00 201.91 -18.27062 -25.24752 0.00000
304.87 10.00000 10.00000 1652.48145 1135.70 0.00 201.91 -18.27062 -24.42670 0.00000
308.66 10.00000 10.00000 2175.18799 1227.24 0.00 201.91 -20.70812 -35.31641 0.00000
309.85 10.00000 10.00000 2092.69336 1333.91 0.00 201.91 -20.70812 -33.59778 0.00000
312.84 10.00000 10.00000 2019.90381 1418.90 0.00 201.91 -20.70812 -32.08133 0.00000
314.87 10.00000 10.00000 1955.67810 1485.83 0.00 201.91 -20.70812 -30.74329 0.00000
318.65 10.00000 10.00000 2470.77319 1571.40 0.00 201.91 -23.20812 -41.47444 0.00000
319.84 10.00000 10.00000 2367.62183 1671.14 0.00 201.91 -23.20812 -39.32545 0.00000
322.84 10.00000 10.00000 2276.60596 1747.73 0.00 201.91 -23.20812 -37.42929 0.00000
324.85 10.00000 10.00000 2196.29810 1805.23 0.00 201.91 -23.20812 -35.75621 0.00000
328.66 10.00000 10.00000 1890.55884 1833.25 0.00 201.91 -27.14562 -29.38664 0.00000
329.85 10.00000 10.00000 1877.90295 1839.25 0.00 201.91 -27.14562 -29.12298 0.00000
332.84 10.00000 10.00000 1866.73645 1843.14 0.00 201.91 -27.14562 -28.89034 0.00000
334.87 10.00000 10.00000 1856.88391 1845.33 0.00 201.91 -27.14562 -28.68508 0.00000
338.65 10.00000 10.00000 1590.89612 1831.05 0.00 201.91 -26.02062 -23.14367 0.00000
339.85 10.00000 10.00000 1607.14160 1803.75 0.00 201.91 -26.02062 -23.48212 0.00000
342.84 10.00000 10.00000 1621.47656 1781.46 0.00 201.91 -26.02062 -23.78076 0.00000
344.85 10.00000 10.00000 1634.12476 1763.38 0.00 201.91 -26.02062 -24.04427 0.00000
348.66 10.00000 10.00000 2345.69678 1790.03 0.00 201.91 -29.08312 -38.86868 0.00000
349.85 10.00000 10.00000 2290.43701 1852.16 0.00 201.91 -29.08312 -37.71744 0.00000
352.84 10.00000 10.00000 2241.67822 1900.85 0.00 201.91 -29.08312 -36.70163 0.00000
354.84 10.00000 10.00000 2198.65576 1938.42 0.00 201.91 -29.08312 -35.80533 0.00000
358.66 10.00000 10.00000 2146.40112 1965.96 0.00 201.91 -29.02062 -34.71669 0.00000
359.84 10.00000 10.00000 2114.23462 1985.30 0.00 201.91 -29.02062 -34.04655 0.00000
362.84 10.00000 10.00000 2085.85254 1998.79 0.00 201.91 -29.02062 -33.45526 0.00000
364.86 10.00000 10.00000 2060.80957 2007.56 0.00 201.91 -29.02062 -32.93353 0.00000
368.65 10.00000 10.00000 2010.12378 2010.85 0.00 201.91 -28.89562 -31.87758 0.00000
369.85 10.00000 10.00000 1993.28394 2009.77 0.00 201.91 -28.89562 -31.52675 0.00000
372.83 10.00000 10.00000 1978.42529 2006.96 0.00 201.91 -28.89562 -31.21719 0.00000
374.89 10.00000 10.00000 1965.31494 2002.83 0.00 201.91 -28.89562 -30.94406 0.00000
378.65 10.00000 10.00000 1968.04102 1998.58 0.00 201.91 -28.95812 -31.00085 0.00000
379.84 10.00000 10.00000 1956.50537 1994.30 0.00 201.91 -28.95812 -30.76053 0.00000
382.83 10.00000 10.00000 1946.32690 1989.26 0.00 201.91 -28.95812 -30.54848 0.00000
384.85 10.00000 10.00000 1937.34595 1983.68 0.00 201.91 -28.95812 -30.36137 0.00000
388.65 10.00000 10.00000 1772.18555 1968.51 0.00 201.91 -28.27062 -26.92053 0.00000
389.85 10.00000 10.00000 1779.80859 1945.86 0.00 201.91 -28.27062 -27.07935 0.00000
392.84 10.00000 10.00000 1786.53516 1926.72 0.00 201.91 -28.27062 -27.21948 0.00000
394.85 10.00000 10.00000 1792.46997 1910.58 0.00 201.91 -28.27062 -27.34312 0.00000
398.65 10.00000 10.00000 1669.05981 1889.43 0.00 201.91 -27.70812 -24.77208 0.00000
399.84 10.00000 10.00000 1685.63892 1864.48 0.00 201.91 -27.70812 -25.11748 0.00000
402.84 10.00000 10.00000 1700.26758 1844.30 0.00 201.91 -27.70812 -25.42224 0.00000
404.84 10.00000 10.00000 1713.17578 1828.11 0.00 201.91 -27.70812 -25.69116 0.00000
408.65 10.00000 10.00000 1267.15283 1788.35 0.00 201.91 -25.70812 -16.39902 0.00000
409.84 10.00000 10.00000 1319.72131 1730.13 0.00 201.91 -25.70812 -17.49419 0.00000
412.83 10.00000 10.00000 1366.10559 1684.57 0.00 201.91 -25.70812 -18.46053 0.00000
414.84 10.00000 10.00000 1407.03259 1649.51 0.00 201.91 -25.70812 -19.31318 0.00000
418.66 10.00000 10.00000 1214.43860 1609.66 0.00 201.91 -24.70812 -15.30080 0.00000
419.85 10.00000 10.00000 1267.56189 1566.29 0.00 201.91 -24.70812 -16.40754 0.00000
422.84 10.00000 10.00000 1314.43542 1533.90 0.00 201.91 -24.70812 -17.38407 0.00000
424.85 10.00000 10.00000 1355.79456 1510.51 0.00 201.91 -24.70812 -18.24572 0.00000
428.65 10.00000 10.00000 992.05261 1470.91 0.00 201.91 -22.95812 -10.66776 0.00000
429.85 10.00000 10.00000 1061.45654 1418.66 0.00 201.91 -22.95812 -12.11368 0.00000
432.84 10.00000 10.00000 1122.69507 1380.24 0.00 201.91 -22.95812 -13.38948 0.00000
434.86 10.00000 10.00000 1176.72913 1353.12 0.00 201.91 -22.95812 -14.51519 0.00000
438.66 10.00000 10.00000 1502.16833 1351.51 0.00 201.91 -19.20812 -21.29517 0.00000
439.85 10.00000 10.00000 1490.38220 1368.54 0.00 201.91 -19.20812 -21.04963 0.00000
442.84 10.00000 10.00000 1479.98254 1382.26 0.00 201.91 -19.20812 -20.83297 0.00000
444.85 10.00000 10.00000 1470.80676 1393.22 0.00 201.91 -19.20812 -20.64181 0.00000
448.66 10.00000 10.00000 1376.94543 1396.83 0.00 201.91 -18.83312 -18.68636 0.00000
449.85 10.00000 10.00000 1377.77380 1394.54 0.00 201.91 -18.83312 -18.70362 0.00000
452.84 10.00000 10.00000 1378.50476 1392.61 0.00 201.91 -18.83312 -18.71885 0.00000
454.85 10.00000 10.00000 1379.14966 1390.99 0.00 201.91 -18.83312 -18.73228 0.00000
458.66 10.00000 10.00000 1743.24512 1411.01 0.00 201.91 -15.45813 -26.31761 0.00000
459.84 10.00000 10.00000 1681.92078 1446.49 0.00 201.91 -15.45813 -25.04002 0.00000
462.84 10.00000 10.00000 1627.81128 1471.00 0.00 201.91 -15.45813 -23.91273 0.00000
464.85 10.00000 10.00000 1580.06763 1486.64 0.00 201.91 -15.45813 -22.91808 0.00000
468.65 10.00000 10.00000 851.82312 1454.80 0.00 201.91 -12.45813 -7.74632 0.00000
469.85 10.00000 10.00000 878.43073 1385.42 0.00 201.91 -12.45813 -8.30064 0.00000
472.84 10.00000 10.00000 901.90814 1327.16 0.00 201.91 -12.45813 -8.78975 0.00000
474.85 10.00000 10.00000 922.62323 1278.35 0.00 201.91 -12.45813 -9.22132 0.00000
478.65 10.00000 10.00000 397.72504 1205.62 0.00 201.91 -10.08313 1.71406 0.00000
479.84 10.00000 10.00000 464.34430 1114.49 0.00 201.91 -10.08313 0.32616 0.00000
482.84 10.00000 10.00000 523.12610 1041.46 0.00 201.91 -10.08313 -0.89846 0.00000
484.85 10.00000 10.00000 574.99237 983.53 0.00 201.91 -10.08313 -1.97901 0.00000
488.66 10.00000 10.00000 784.16528 947.77 0.00 201.91 -5.83313 -6.33678 0.00000
489.85 10.00000 10.00000 781.32111 928.36 0.00 201.91 -5.83313 -6.27752 0.00000
492.85 10.00000 10.00000 778.81146 910.91 0.00 201.91 -5.83313 -6.22524 0.00000
494.86 10.00000 10.00000 776.59717 895.24 0.00 201.91 -5.83313 -6.17911 0.00000
498.65 10.00000 10.00000 188.58444 846.69 0.00 201.91 -3.27063 6.07116 0.00000
499.85 10.00000 10.00000 241.33795 772.37 0.00 201.91 -3.27063 4.97213 0.00000
502.84 10.00000 10.00000 287.88519 712.64 0.00 201.91 -3.27063 4.00239 0.00000
504.85 10.00000 10.00000 328.95630 665.08 0.00 201.91 -3.27063 3.14674 0.00000
508.65 10.00000 10.00000 671.54529 645.69 0.00 201.91 0.35438 -3.99053 0.00000
509.85 10.00000 10.00000 647.00934 647.29 0.00 201.91 0.35438 -3.47936 0.00000
512.84 10.00000 10.00000 625.35999 645.98 0.00 201.91 0.35438 -3.02833 0.00000
514.85 10.00000 10.00000 606.25769 642.43 0.00 201.91 0.35438 -2.63037 0.00000
518.65 7.64416 7.64416 582.55457 636.78 0.00 201.91 4.85437 -4.49239 0.00000
519.85 7.71963 7.71963 533.39539 627.51 0.00 201.91 4.85437 -3.39278 0.00000
522.84 7.68596 7.68596 485.20721 613.60 0.00 201.91 4.85437 -2.42253 0.00000
524.87 7.65243 7.65243 442.50504 595.99 0.00 201.91 4.85437 -1.56642 0.00000
528.66 5.94210 5.94210 38.26829 554.15 0.00 201.91 6.10437 5.14485 0.00000
529.85 5.99432 5.99432 35.35622 493.29 0.00 201.91 6.10437 5.25773 0.00000
532.84 5.96317 5.96317 29.08012 439.04 0.00 201.91 6.10437 5.35733 0.00000
534.85 5.93227 5.93227 23.37859 390.48 0.00 201.91 6.10437 5.44522 0.00000
538.66 -2.29858 -2.29858 -540.78082 314.10 0.00 201.91 11.79187 8.96769 0.00000
539.85 -2.50927 -2.50927 -566.84229 212.00 0.00 142.68 11.79187 9.29994 0.00000
542.83 -2.56286 -2.56286 -583.48645 119.39 0.00 80.35 11.79187 9.59311 0.00000
544.86 -2.61626 -2.61626 -598.46606 35.82 0.00 24.11 11.79187 9.85178 0.00000
548.66 -6.34925 -6.34925 -1360.36987 -83.62 0.00 -56.28 14.29187 21.99179 0.00000
549.85 -6.55601 -6.55601 -1326.81250 -231.85 0.00 -156.05 14.29187 21.08591 0.00000
552.84 -6.59015 -6.59015 -1290.08472 -358.51 0.00 -201.91 14.29187 20.28661 0.00000
554.86 -6.62429 -6.62429 -1257.87061 -466.21 0.00 -201.91 14.29187 19.58135 0.00000
558.66 -10.00000 -10.00000 -1269.50830 -560.03 0.00 -201.91 18.72938 16.44809 0.00000
559.84 -10.00000 -10.00000 -1282.39014 -644.26 0.00 -201.91 18.72938 16.71646 0.00000
562.84 -10.00000 -10.00000 -1293.75659 -720.00 0.00 -201.91 18.72938 16.95326 0.00000
564.85 -10.00000 -10.00000 -1303.78601 -788.09 0.00 -201.91 18.72938 17.16221 0.00000
568.65 -10.00000 -10.00000 -1206.40356 -843.03 0.00 -201.91 23.22938 15.13341 0.00000
569.85 -10.00000 -10.00000 -1252.12134 -888.47 0.00 -201.91 23.22938 16.08586 0.00000
572.84 -10.00000 -10.00000 -1292.46057 -933.63 0.00 -201.91 23.22938 16.92626 0.00000
574.85 -10.00000 -10.00000 -1328.05408 -977.94 0.00 -201.91 23.22938 17.66779 0.00000
578.65 -10.00000 -10.00000 -1745.40125 -1043.68 0.00 -201.91 24.91688 26.36253 0.00000
579.84 -10.00000 -10.00000 -1737.23730 -1125.75 0.00 -201.91 24.91688 26.19244 0.00000
582.83 -10.00000 -10.00000 -1730.03394 -1197.27 0.00 -201.91 24.91688 26.04237 0.00000
584.85 -10.00000 -10.00000 -1723.67798 -1259.57 0.00 -201.91 24.91688 25.90996 0.00000
588.65 -10.00000 -10.00000 -2275.54028 -1346.64 0.00 -201.91 27.35438 37.40709 0.00000
589.85 -10.00000 -10.00000 -2218.77173 -1452.58 0.00 -201.91 27.35438 36.22441 0.00000
592.84 -10.00000 -10.00000 -2168.68140 -1539.77 0.00 -201.91 27.35438 35.18086 0.00000
594.85 -10.00000 -10.00000 -2124.48413 -1611.16 0.00 -201.91 27.35438 34.26009 0.00000
598.65 -10.00000 -10.00000 -2657.25146 -1702.89 0.00 -201.91 29.85438 45.35941 0.00000
599.85 -10.00000 -10.00000 -2569.69336 -1810.02 0.00 -201.91 29.85438 43.53528 0.00000
602.84 -10.00000 -10.00000 -2492.43604 -1894.85 0.00 -201.91 29.85438 41.92575 0.00000
604.86 -10.00000 -10.00000 -2424.26807 -1961.14 0.00 -201.91 29.85438 40.50558 0.00000
608.65 -10.00000 -10.00000 -2021.06030 -1991.91 0.00 -201.91 28.35438 32.10542 0.00000
609.85 -10.00000 -10.00000 -1999.87720 -1994.09 0.00 -201.91 28.35438 31.66411 0.00000
612.84 -10.00000 -10.00000 -1981.18652 -1993.67 0.00 -201.91 28.35438 31.27472 0.00000
614.87 -10.00000 -10.00000 -1964.69458 -1991.23 0.00 -201.91 28.35438 30.93114 0.00000
618.66 -10.00000 -10.00000 -2579.08447 -2024.25 0.00 -201.91 31.10438 43.73093 0.00000
619.85 -10.00000 -10.00000 -2507.78101 -2085.33 0.00 -201.91 31.10438 42.24544 0.00000
622.84 -10.00000 -10.00000 -2444.86597 -2131.33 0.00 -201.91 31.10438 40.93471 0.00000
624.84 -10.00000 -10.00000 -2389.35278 -2164.95 0.00 -201.91 31.10438 39.77818 0.00000
628.66 -10.00000 -10.00000 -1911.54712 -2163.25 0.00 -201.91 29.22938 29.82390 0.00000
629.85 -10.00000 -10.00000 -1908.18970 -2133.44 0.00 -201.91 29.22938 29.75395 0.00000
632.84 -10.00000 -10.00000 -1905.22705 -2106.76 0.00 -201.91 29.22938 29.69223 0.00000
634.86 -10.00000 -10.00000 -1902.61304 -2082.90 0.00 -201.91 29.22938 29.63777 0.00000
638.66 -10.00000 -10.00000 -1771.65894 -2053.99 0.00 -201.91 28.66688 26.90956 0.00000
639.84 -10.00000 -10.00000 -1781.58179 -2021.35 0.00 -201.91 28.66688 27.11629 0.00000
642.84 -10.00000 -10.00000 -1790.33716 -1993.66 0.00 -201.91 28.66688 27.29869 0.00000
644.86 -10.00000 -10.00000 -1798.06274 -1970.19 0.00 -201.91 28.66688 27.45964 0.00000
648.66 -10.00000 -10.00000 -2090.76196 -1967.16 0.00 -201.91 29.91688 33.55754 0.00000
649.85 -10.00000 -10.00000 -2070.20215 -1980.49 0.00 -201.91 29.91688 33.12921 0.00000
652.84 -10.00000 -10.00000 -2052.06152 -1989.98 0.00 -201.91 29.91688 32.75128 0.00000
654.85 -10.00000 -10.00000 -2036.05518 -1996.34 0.00 -201.91 29.91688 32.41782 0.00000
658.65 -10.00000 -10.00000 -2356.86987 -2019.89 0.00 -201.91 26.41688 39.10146 0.00000
659.84 -10.00000 -10.00000 -2285.23877 -2055.32 0.00 -201.91 26.41688 37.60914 0.00000
662.83 -10.00000 -10.00000 -2222.03418 -2078.65 0.00 -201.91 26.41688 36.29238 0.00000
664.85 -10.00000 -10.00000 -2166.26611 -2092.24 0.00 -201.91 26.41688 35.13055 0.00000
668.65 -10.00000 -10.00000 -2031.29407 -2093.01 0.00 -201.91 26.04188 32.31863 0.00000
669.85 -10.00000 -10.00000 -1995.84778 -2083.66 0.00 -201.91 26.04188 31.58016 0.00000
672.84 -10.00000 -10.00000 -1964.57190 -2071.49 0.00 -201.91 26.04188 30.92858 0.00000
674.84 -10.00000 -10.00000 -1936.97571 -2057.29 0.00 -201.91 26.04188 30.35366 0.00000
678.66 -10.00000 -10.00000 -1526.68542 -2019.00 0.00 -201.91 24.35438 21.80595 0.00000
679.85 -10.00000 -10.00000 -1541.07642 -1961.93 0.00 -201.91 24.35438 22.10576 0.00000
682.84 -10.00000 -10.00000 -1553.77368 -1913.16 0.00 -201.91 24.35438 22.37029 0.00000
684.86 -10.00000 -10.00000 -1564.97754 -1871.54 0.00 -201.91 24.35438 22.60370 0.00000
688.65 -10.00000 -10.00000 -874.45166 -1794.85 0.00 -201.91 21.29188 8.21774 0.00000
689.85 -10.00000 -10.00000 -948.28162 -1690.91 0.00 -201.91 21.29188 9.75587 0.00000
692.84 -10.00000 -10.00000 -1013.42578 -1607.38 0.00 -201.91 21.29188 11.11304 0.00000
694.87 -10.00000 -10.00000 -1070.90588 -1540.88 0.00 -201.91 21.29188 12.31054 0.00000
698.65 -10.00000 -10.00000 -664.21179 -1461.67 0.00 -201.91 19.29188 3.83775 0.00000
699.85 -10.00000 -10.00000 -751.48206 -1372.98 0.00 -201.91 19.29188 5.65588 0.00000
702.84 -10.00000 -10.00000 -828.48523 -1304.39 0.00 -201.91 19.29188 7.26011 0.00000
704.86 -10.00000 -10.00000 -896.42908 -1252.40 0.00 -201.91 19.29188 8.67561 0.00000
708.65 -10.00000 -10.00000 -584.73230 -1192.19 0.00 -201.91 17.66688 2.18192 0.00000
709.85 -10.00000 -10.00000 -672.17615 -1125.87 0.00 -201.91 17.66688 4.00367 0.00000
712.84 -10.00000 -10.00000 -749.33240 -1077.03 0.00 -201.91 17.66688 5.61109 0.00000
714.85 -10.00000 -10.00000 -817.41174 -1042.48 0.00 -201.91 17.66688 7.02941 0.00000
718.66 -10.00000 -10.00000 -1212.41943 -1039.24 0.00 -201.91 14.16687 15.25874 0.00000
719.85 -10.00000 -10.00000 -1206.25342 -1059.25 0.00 -201.91 14.16687 15.13028 0.00000
722.84 -10.00000 -10.00000 -1200.81262 -1076.22 0.00 -201.91 14.16687 15.01693 0.00000
724.84 -10.00000 -10.00000 -1196.01196 -1090.60 0.00 -201.91 14.16687 14.91692 0.00000
728.66 -10.00000 -10.00000 -1455.24353 -1118.25 0.00 -201.91 10.35437 20.31757 0.00000
729.85 -10.00000 -10.00000 -1398.98047 -1154.59 0.00 -201.91 10.35437 19.14543 0.00000
732.84 -10.00000 -10.00000 -1349.33667 -1180.42 0.00 -201.91 10.35437 18.11118 0.00000
734.85 -10.00000 -10.00000 -1305.53345 -1197.71 0.00 -201.91 10.35437 17.19861 0.00000
738.65 -10.00000 -10.00000 -738.00092 -1177.01 0.00 -201.91 8.04187 5.37502 0.00000
739.85 -10.00000 -10.00000 -753.06061 -1126.25 0.00 -201.91 8.04187 5.68876 0.00000
742.84 -10.00000 -10.00000 -766.34857 -1083.13 0.00 -201.91 8.04187 5.96560 0.00000
744.85 -10.00000 -10.00000 -778.07318 -1046.55 0.00 -201.91 8.04187 6.20986 0.00000
748.66 -10.00000 -10.00000 -1123.35669 -1035.28 0.00 -201.91 4.54187 13.40326 0.00000
749.84 -10.00000 -10.00000 -1073.31580 -1042.69 0.00 -201.91 4.54187 12.36075 0.00000
752.84 -10.00000 -10.00000 -1029.16211 -1043.70 0.00 -201.91 4.54187 11.44088 0.00000
754.85 -10.00000 -10.00000 -990.20300 -1039.70 0.00 -201.91 4.54187 10.62923 0.00000
758.66 -10.00000 -10.00000 -1290.76526 -1051.55 0.00 -201.91 1.04188 16.89094 0.00000
759.84 -10.00000 -10.00000 -1201.26453 -1074.43 0.00 -201.91 1.04188 15.02635 0.00000
762.84 -10.00000 -10.00000 -1122.29333 -1084.71 0.00 -201.91 1.04188 13.38111 0.00000
764.84 -10.00000 -10.00000 -1052.61292 -1085.03 0.00 -201.91 1.04188 11.92944 0.00000
768.65 -5.52995 -5.52995 -1054.32935 -1081.32 0.00 -201.91 -2.70813 16.43525 0.00000
769.85 -5.51583 -5.51583 -945.54767 -1071.74 0.00 -201.91 -2.70813 14.18308 0.00000
772.84 -5.45820 -5.45820 -847.39600 -1051.12 0.00 -201.91 -2.70813 12.19588 0.00000
774.85 -5.40085 -5.40085 -760.47931 -1022.04 0.00 -201.91 -2.70813 10.44247 0.00000
778.65 -1.85219 -1.85219 70.17744 -942.41 0.00 -201.91 -5.27063 -3.31422 0.00000
779.85 -1.91669 -1.91669 78.12914 -822.81 0.00 -201.91 -5.27063 -3.54438 0.00000
782.84 -1.98226 -1.98226 84.72970 -716.43 0.00 -201.91 -5.27063 -3.74747 0.00000
784.85 -2.04788 -2.04788 90.18137 -621.86 0.00 -201.91 -5.27063 -3.92666 0.00000
788.66 6.32021 6.32021 679.08929 -503.45 0.00 -201.91 -11.02063 -7.82748 0.00000
789.85 6.58084 6.58084 709.63159 -362.53 0.00 -201.91 -11.02063 -8.20315 0.00000
792.84 6.84068 6.84068 738.01404 -234.72 0.00 -157.98 -11.02063 -8.53461 0.00000
794.87 7.10055 7.10055 764.52625 -118.72 0.00 -79.90 -11.02063 -8.82708 0.00000
798.65 9.51081 9.51081 1264.25269 14.58 0.00 9.82 -12.64563 -16.82779 0.00000
799.85 9.62915 9.62915 1246.31616 160.55 0.00 108.06 -12.64563 -16.33577 0.00000
802.84 9.64585 9.64585 1226.27917 287.11 0.00 193.23 -12.64563 -15.90163 0.00000
804.85 9.66254 9.66254 1208.69312 396.56 0.00 201.91 -12.64563 -15.51857 0.00000
808.66 10.00000 10.00000 802.25867 468.20 0.00 201.91 -15.83313 -6.71372 0.00000
809.84 10.00000 10.00000 853.75598 510.53 0.00 201.91 -15.83313 -7.78658 0.00000
812.84 10.00000 10.00000 899.19470 553.58 0.00 201.91 -15.83313 -8.73322 0.00000
814.88 10.00000 10.00000 939.28784 596.60 0.00 201.91 -15.83313 -9.56850 0.00000
818.65 10.00000 10.00000 1025.66748 642.00 0.00 201.91 -21.02062 -11.36807 0.00000
819.84 10.00000 10.00000 1080.17578 690.34 0.00 201.91 -21.02062 -12.50366 0.00000
822.83 10.00000 10.00000 1128.27100 739.03 0.00 201.91 -21.02062 -13.50565 0.00000
824.84 10.00000 10.00000 1170.70825 787.32 0.00 201.91 -21.02062 -14.38976 0.00000
828.40 10.00000 10.00000 1208.15259 834.63 0.00 201.91 -21.02062 -15.16985 0.00000
830.22 10.00000 10.00000 1527.07397 897.33 0.00 201.91 -22.27062 -21.81404 0.00000
832.84 10.00000 10.00000 1529.65173 971.57 0.00 201.91 -22.27062 -21.86774 0.00000
834.86 10.00000 10.00000 1531.92627 1037.36 0.00 201.91 -22.27062 -21.91513 0.00000
838.31 10.00000 10.00000 1533.93311 1095.66 0.00 201.91 -22.27062 -21.95694 0.00000
840.24 10.00000 10.00000 2193.23364 1186.01 0.00 201.91 -25.14562 -35.69237 0.00000
842.84 10.00000 10.00000 2133.67529 1301.00 0.00 201.91 -25.14562 -34.45157 0.00000
844.87 10.00000 10.00000 2081.12402 1395.87 0.00 201.91 -25.14562 -33.35675 0.00000
848.30 10.00000 10.00000 2034.75513 1473.76 0.00 201.91 -25.14562 -32.39073 0.00000
850.23 10.00000 10.00000 2251.13525 1552.49 0.00 201.91 -26.27062 -36.89865 0.00000
852.84 10.00000 10.00000 2191.11816 1631.15 0.00 201.91 -26.27062 -35.64829 0.00000
854.86 10.00000 10.00000 2138.16113 1693.92 0.00 201.91 -26.27062 -34.54502 0.00000
858.29 10.00000 10.00000 2091.43457 1743.43 0.00 201.91 -26.27062 -33.57156 0.00000
860.23 10.00000 10.00000 2121.67578 1786.15 0.00 201.91 -26.58312 -34.20158 0.00000
862.84 10.00000 10.00000 2078.65332 1823.09 0.00 201.91 -26.58312 -33.30527 0.00000
864.85 10.00000 10.00000 2040.69177 1850.93 0.00 201.91 -26.58312 -32.51441 0.00000
868.28 10.00000 10.00000 2007.19666 1871.28 0.00 201.91 -26.58312 -31.81660 0.00000
870.21 10.00000 10.00000 2163.46631 1896.46 0.00 201.91 -27.39562 -35.07221 0.00000
872.85 10.00000 10.00000 2120.11523 1925.33 0.00 201.91 -27.39562 -34.16907 0.00000
874.84 10.00000 10.00000 2081.86450 1945.99 0.00 201.91 -27.39562 -33.37218 0.00000
878.28 10.00000 10.00000 2048.11377 1959.99 0.00 201.91 -27.39562 -32.66904 0.00000
880.22 10.00000 10.00000 2132.68726 1975.33 0.00 201.91 -27.89562 -34.43098 0.00000
882.87 10.00000 10.00000 2095.78125 1991.67 0.00 201.91 -27.89562 -33.66211 0.00000
884.86 10.00000 10.00000 2063.21704 2002.01 0.00 201.91 -27.89562 -32.98369 0.00000
888.29 10.00000 10.00000 2034.48413 2007.52 0.00 201.91 -27.89562 -32.38509 0.00000
890.23 10.00000 10.00000 1608.89575 1985.66 0.00 201.91 -26.14562 -23.51866 0.00000
892.88 10.00000 10.00000 1623.72949 1942.20 0.00 201.91 -26.14562 -23.82770 0.00000
894.85 10.00000 10.00000 1636.81860 1905.51 0.00 201.91 -26.14562 -24.10039 0.00000
898.29 10.00000 10.00000 1648.36743 1874.57 0.00 201.91 -26.14562 -24.34099 0.00000
900.21 10.00000 10.00000 1629.96899 1846.88 0.00 201.91 -26.02062 -23.95769 0.00000
902.84 10.00000 10.00000 1641.61816 1822.05 0.00 201.91 -26.02062 -24.20038 0.00000
904.85 10.00000 10.00000 1651.89697 1801.42 0.00 201.91 -26.02062 -24.41452 0.00000
908.29 10.00000 10.00000 1660.96655 1784.37 0.00 201.91 -26.02062 -24.60347 0.00000
910.23 10.00000 10.00000 1397.38037 1754.34 0.00 201.91 -24.83312 -19.11209 0.00000
912.83 10.00000 10.00000 1429.68640 1714.25 0.00 201.91 -24.83312 -19.78513 0.00000
914.87 10.00000 10.00000 1458.19226 1682.45 0.00 201.91 -24.83312 -20.37901 0.00000
918.29 10.00000 10.00000 1483.34436 1657.54 0.00 201.91 -24.83312 -20.90301 0.00000
920.21 10.00000 10.00000 1276.83142 1624.90 0.00 201.91 -23.83312 -16.60065 0.00000
922.86 10.00000 10.00000 1317.67310 1586.35 0.00 201.91 -23.83312 -17.45152 0.00000
924.85 10.00000 10.00000 1353.70972 1556.86 0.00 201.91 -23.83312 -18.20229 0.00000
928.29 10.00000 10.00000 1385.50708 1534.83 0.00 201.91 -23.83312 -18.86473 0.00000
930.23 10.00000 10.00000 1791.38416 1541.14 0.00 201.91 -20.52062 -27.32050 0.00000
932.87 10.00000 10.00000 1752.98438 1568.32 0.00 201.91 -20.52062 -26.52051 0.00000
934.85 10.00000 10.00000 1719.10217 1588.05 0.00 201.91 -20.52062 -25.81463 0.00000
938.29 10.00000 10.00000 1689.20618 1601.71 0.00 201.91 -20.52062 -25.19180 0.00000
940.24 10.00000 10.00000 1176.82764 1581.87 0.00 201.91 -18.39562 -14.51724 0.00000
942.84 10.00000 10.00000 1198.72888 1535.50 0.00 201.91 -18.39562 -14.97352 0.00000
944.85 10.00000 10.00000 1218.05347 1497.02 0.00 201.91 -18.39562 -15.37611 0.00000
948.29 10.00000 10.00000 1235.10461 1465.20 0.00 201.91 -18.39562 -15.73135 0.00000
950.23 10.00000 10.00000 1092.91443 1429.77 0.00 201.91 -17.70812 -12.76905 0.00000
952.84 10.00000 10.00000 1120.80542 1391.78 0.00 201.91 -17.70812 -13.35011 0.00000
954.84 10.00000 10.00000 1145.41516 1361.35 0.00 201.91 -17.70812 -13.86282 0.00000
958.28 10.00000 10.00000 1167.12964 1337.22 0.00 201.91 -17.70812 -14.31520 0.00000
960.22 10.00000 10.00000 1263.93359 1322.90 0.00 201.91 -13.08313 -16.33195 0.00000
962.86 10.00000 10.00000 1245.58716 1314.89 0.00 201.91 -13.08313 -15.94973 0.00000
964.87 10.00000 10.00000 1229.39917 1305.78 0.00 201.91 -13.08313 -15.61248 0.00000
968.29 10.00000 10.00000 1215.11548 1295.96 0.00 201.91 -13.08313 -15.31491 0.00000
970.24 10.00000 10.00000 702.21808 1256.27 0.00 201.91 -10.89563 -4.62954 0.00000
972.83 10.00000 10.00000 737.60284 1193.17 0.00 201.91 -10.89563 -5.36673 0.00000
974.85 10.00000 10.00000 768.82471 1141.41 0.00 201.91 -10.89563 -6.01718 0.00000
978.28 10.00000 10.00000 796.37329 1099.20 0.00 201.91 -10.89563 -6.59111 0.00000
980.21 10.00000 10.00000 306.09265 1034.73 0.00 201.91 -8.64563 3.62307 0.00000
982.84 10.00000 10.00000 375.37445 953.09 0.00 201.91 -8.64563 2.17970 0.00000
984.87 10.00000 10.00000 436.50549 888.72 0.00 201.91 -8.64563 0.90614 0.00000
988.30 10.00000 10.00000 490.44470 838.69 0.00 201.91 -8.64563 -0.21760 0.00000
990.23 10.00000 10.00000 558.50562 801.72 0.00 201.91 -3.77063 -1.63553 0.00000
992.84 10.00000 10.00000 570.56250 773.82 0.00 201.91 -3.77063 -1.88672 0.00000
994.85 10.00000 10.00000 581.20093 750.53 0.00 201.91 -3.77063 -2.10835 0.00000
998.29 10.00000 10.00000 590.58783 731.16 0.00 201.91 -3.77063 -2.30391 0.00000
1000.21 10.00000 10.00000 -1.48260 679.80 0.00 201.91 -1.14562 10.03089 0.00000
1002.86 10.00000 10.00000 61.63184 603.36 0.00 201.91 -1.14562 8.71600 0.00000
1004.86 10.00000 10.00000 117.32103 542.90 0.00 201.91 -1.14562 7.55581 0.00000
1008.29 10.00000 10.00000 166.45856 495.72 0.00 201.91 -1.14562 6.53211 0.00000
1010.23 9.17210 9.17210 519.30817 477.74 0.00 201.91 2.29187 -1.64682 0.00000
1012.84 9.05596 9.05596 491.49133 481.00 0.00 201.91 2.29187 -1.18344 0.00000
1014.85 8.93987 8.93987 466.29370 480.75 0.00 201.91 2.29187 -0.77458 0.00000
1018.29 8.83468 8.83468 443.92813 477.73 0.00 201.91 2.29187 -0.41383 0.00000
1020.22 2.06564 2.06564 167.08527 457.47 0.00 201.91 6.97937 -1.41530 0.00000
1022.84 2.11774 2.11774 122.18059 420.67 0.00 201.91 6.97937 -0.42769 0.00000
1024.85 2.16982 2.16982 82.85291 383.24 0.00 201.91 6.97937 0.44372 0.00000
1028.29 2.14092 2.14092 44.55865 345.64 0.00 201.91 6.97937 1.21262 0.00000
1030.22 -0.02042 -0.02042 -434.80933 282.02 0.00 189.81 8.47937 9.03811 0.00000
1032.86 -0.00588 -0.00588 -430.95621 197.92 0.00 133.21 8.47937 8.97237 0.00000
1034.87 0.00884 0.00884 -427.46564 124.14 0.00 83.55 8.47937 8.91437 0.00000
1038.30 -0.14763 -0.14763 -432.51956 58.95 0.00 39.67 8.47937 8.86319 0.00000
1040.23 -8.39001 -8.39001 -991.34235 -31.75 0.00 -21.37 14.16687 12.26295 0.00000
1042.84 -8.44376 -8.44376 -1004.67371 -145.42 0.00 -97.87 14.16687 12.48694 0.00000
1044.86 -8.49720 -8.49720 -1016.72510 -247.22 0.00 -166.39 14.16687 12.68457 0.00000
1048.30 -8.70560 -8.70560 -1035.09888 -338.83 0.00 -201.91 14.16687 12.85896 0.00000
1050.22 -10.00000 -10.00000 -783.97192 -405.97 0.00 -201.91 17.72938 6.33275 0.00000
1052.84 -10.00000 -10.00000 -848.32874 -454.23 0.00 -201.91 17.72938 7.67352 0.00000
1054.85 -10.00000 -10.00000 -905.11450 -503.93 0.00 -201.91 17.72938 8.85655 0.00000
1058.28 -10.00000 -10.00000 -955.21948 -554.08 0.00 -201.91 17.72938 9.90041 0.00000
1060.23 -10.00000 -10.00000 -1313.90002 -622.37 0.00 -201.91 19.10438 17.37292 0.00000
1062.86 -10.00000 -10.00000 -1323.67712 -704.30 0.00 -201.91 19.10438 17.57661 0.00000
1064.85 -10.00000 -10.00000 -1332.30396 -777.68 0.00 -201.91 19.10438 17.75633 0.00000
1068.29 -10.00000 -10.00000 -1339.91602 -843.38 0.00 -201.91 19.10438 17.91492 0.00000
1070.23 -10.00000 -10.00000 -1540.57690 -913.60 0.00 -201.91 24.91688 22.09535 0.00000
1072.84 -10.00000 -10.00000 -1556.51001 -988.29 0.00 -201.91 24.91688 22.42729 0.00000
1074.85 -10.00000 -10.00000 -1570.56812 -1055.97 0.00 -201.91 24.91688 22.72017 0.00000
1078.30 -10.00000 -10.00000 -1582.97241 -1117.24 0.00 -201.91 24.91688 22.97859 0.00000
1080.22 -10.00000 -10.00000 -1608.21167 -1173.52 0.00 -201.91 24.97938 23.50441 0.00000
1082.84 -10.00000 -10.00000 -1616.54041 -1225.15 0.00 -201.91 24.97938 23.67793 0.00000
1084.85 -10.00000 -10.00000 -1623.88879 -1271.63 0.00 -201.91 24.97938 23.83102 0.00000
1088.29 -10.00000 -10.00000 -1630.37292 -1313.45 0.00 -201.91 24.97938 23.96610 0.00000
1090.24 -10.00000 -10.00000 -1893.38855 -1366.21 0.00 -201.91 26.10438 29.44559 0.00000
1092.84 -10.00000 -10.00000 -1874.51990 -1427.12 0.00 -201.91 26.10438 29.05250 0.00000
1094.86 -10.00000 -10.00000 -1857.87122 -1478.77 0.00 -201.91 26.10438 28.70565 0.00000
1098.29 -10.00000 -10.00000 -1843.18176 -1522.51 0.00 -201.91 26.10438 28.39962 0.00000
1100.22 -10.00000 -10.00000 -2401.98438 -1593.11 0.00 -201.91 28.60438 40.04134 0.00000
1102.87 -10.00000 -10.00000 -2337.39844 -1684.47 0.00 -201.91 28.60438 38.69580 0.00000
1104.84 -10.00000 -10.00000 -2280.41089 -1757.93 0.00 -201.91 28.60438 37.50856 0.00000
1108.29 -10.00000 -10.00000 -2230.12720 -1816.44 0.00 -201.91 28.60438 36.46098 0.00000
1110.22 -10.00000 -10.00000 -1771.23047 -1838.12 0.00 -201.91 26.79188 26.90063 0.00000
1112.85 -10.00000 -10.00000 -1770.61560 -1830.21 0.00 -201.91 26.79188 26.88783 0.00000
1114.85 -10.00000 -10.00000 -1770.07361 -1823.17 0.00 -201.91 26.79188 26.87653 0.00000
1118.29 -10.00000 -10.00000 -1769.59534 -1816.89 0.00 -201.91 26.79188 26.86657 0.00000
1120.23 -10.00000 -10.00000 -2140.82031 -1833.17 0.00 -201.91 28.41688 34.60043 0.00000
1122.83 -10.00000 -10.00000 -2105.90112 -1867.31 0.00 -201.91 28.41688 33.87294 0.00000
1124.87 -10.00000 -10.00000 -2075.09033 -1893.56 0.00 -201.91 28.41688 33.23105 0.00000
1128.28 -10.00000 -10.00000 -2047.90430 -1913.32 0.00 -201.91 28.41688 32.66467 0.00000
1130.22 -10.00000 -10.00000 -2430.32471 -1951.65 0.00 -201.91 25.22938 40.63177 0.00000
1132.83 -10.00000 -10.00000 -2343.34619 -2002.85 0.00 -201.91 25.22938 38.81971 0.00000
1134.86 -10.00000 -10.00000 -2266.60010 -2038.39 0.00 -201.91 25.22938 37.22083 0.00000
1138.28 -10.00000 -10.00000 -2198.88330 -2061.26 0.00 -201.91 25.22938 35.81007 0.00000
1140.23 -10.00000 -10.00000 -2210.60352 -2078.14 0.00 -201.91 25.54188 36.05424 0.00000
1142.84 -10.00000 -10.00000 -2151.23926 -2090.23 0.00 -201.91 25.54188 34.81748 0.00000
1144.85 -10.00000 -10.00000 -2098.85938 -2094.33 0.00 -201.91 25.54188 33.72623 0.00000
1148.28 -10.00000 -10.00000 -2052.64111 -2092.14 0.00 -201.91 25.54188 32.76336 0.00000
1150.22 -10.00000 -10.00000 -1711.68420 -2067.44 0.00 -201.91 24.22938 25.66009 0.00000
1152.83 -10.00000 -10.00000 -1703.60449 -2025.11 0.00 -201.91 24.22938 25.49176 0.00000
1154.85 -10.00000 -10.00000 -1696.47510 -1986.86 0.00 -201.91 24.22938 25.34323 0.00000
1158.28 -10.00000 -10.00000 -1690.18506 -1952.33 0.00 -201.91 24.22938 25.21219 0.00000
1160.22 -10.00000 -10.00000 -998.51697 -1880.80 0.00 -201.91 21.22938 10.80244 0.00000
1162.83 -10.00000 -10.00000 -1057.39819 -1780.47 0.00 -201.91 21.22938 12.02913 0.00000
1164.85 -10.00000 -10.00000 -1109.35217 -1698.46 0.00 -201.91 21.22938 13.11150 0.00000
1168.29 -10.00000 -10.00000 -1155.19409 -1631.85 0.00 -201.91 21.22938 14.06654 0.00000
1170.21 -10.00000 -10.00000 -1052.70117 -1569.74 0.00 -201.91 20.60438 11.93127 0.00000
1172.85 -10.00000 -10.00000 -1101.67822 -1511.79 0.00 -201.91 20.60438 12.95163 0.00000
1174.86 -10.00000 -10.00000 -1144.89331 -1466.09 0.00 -201.91 20.60438 13.85194 0.00000
1178.30 -10.00000 -10.00000 -1183.02429 -1430.54 0.00 -201.91 20.60438 14.64634 0.00000
1180.24 -10.00000 -10.00000 -1508.72498 -1420.58 0.00 -201.91 16.91688 21.43177 0.00000
1182.84 -10.00000 -10.00000 -1483.22900 -1429.45 0.00 -201.91 16.91688 20.90060 0.00000
1184.85 -10.00000 -10.00000 -1460.73230 -1434.45 0.00 -201.91 16.91688 20.43192 0.00000
1188.29 -10.00000 -10.00000 -1440.88257 -1436.38 0.00 -201.91 16.91688 20.01839 0.00000
1190.22 -10.00000 -10.00000 -1672.54065 -1450.54 0.00 -201.91 13.04187 24.84460 0.00000
1192.83 -10.00000 -10.00000 -1605.88953 -1472.73 0.00 -201.91 13.04187 23.45603 0.00000
1194.86 -10.00000 -10.00000 -1547.07971 -1484.94 0.00 -201.91 13.04187 22.23083 0.00000
1198.29 -10.00000 -10.00000 -1495.18872 -1489.20 0.00 -201.91 13.04187 21.14977 0.00000
1200.22 -10.00000 -10.00000 -1377.93201 -1483.00 0.00 -201.91 12.72937 18.70692 0.00000
1202.84 -10.00000 -10.00000 -1344.17627 -1468.66 0.00 -201.91 12.72937 18.00367 0.00000
1204.85 -10.00000 -10.00000 -1314.39209 -1452.26 0.00 -201.91 12.72937 17.38317 0.00000
1208.29 -10.00000 -10.00000 -1288.11157 -1434.49 0.00 -201.91 12.72937 16.83566 0.00000
1209.96 -10.00000 -10.00000 -1264.92285 -1415.91 0.00 -201.91 12.72937 16.35256 0.00000
1213.22 -10.00000 -10.00000 -1207.75317 -1394.78 0.00 -201.91 7.60437 15.16153 0.00000
1214.85 -10.00000 -10.00000 -1165.07739 -1370.27 0.00 -201.91 7.60437 14.27245 0.00000
1218.29 -10.00000 -10.00000 -1127.42236 -1343.91 0.00 -201.91 7.60437 13.48796 0.00000
1219.85 -10.00000 -10.00000 -1094.19727 -1316.49 0.00 -201.91 7.60437 12.79578 0.00000
1223.21 -10.00000 -10.00000 -350.17511 -1246.57 0.00 -201.91 4.47937 -2.70469 0.00000
1224.84 -10.00000 -10.00000 -390.74387 -1143.50 0.00 -201.91 4.47937 -1.85950 0.00000
1228.29 -10.00000 -10.00000 -426.53979 -1057.05 0.00 -201.91 4.47937 -1.11375 0.00000
1229.87 -10.00000 -10.00000 -458.12439 -984.73 0.00 -201.91 4.47937 -0.45574 0.00000
1233.21 -10.00000 -10.00000 85.77150 -890.78 0.00 -201.91 1.97938 -11.78691 0.00000
1234.85 -10.00000 -10.00000 8.03252 -780.46 0.00 -201.91 1.97938 -10.16734 0.00000
1238.29 -10.00000 -10.00000 -60.56067 -691.73 0.00 -201.91 1.97938 -8.73832 0.00000
1239.85 -10.00000 -10.00000 -121.08408 -621.04 0.00 -201.91 1.97938 -7.47742 0.00000
1243.21 -5.52585 -5.52585 -37.37160 -557.30 0.00 -201.91 -2.64563 -4.74727 0.00000
1244.85 -5.40936 -5.40936 -43.64838 -496.50 0.00 -201.91 -2.64563 -4.50002 0.00000
1248.29 -5.46520 -5.46520 -56.80078 -444.00 0.00 -201.91 -2.64563 -4.28185 0.00000
1249.86 -5.52113 -5.52113 -68.72550 -399.14 0.00 -201.91 -2.64563 -4.08935 0.00000
1253.21 -0.26805 -0.26805 -116.78593 -363.10 0.00 -201.91 -6.33313 2.16499 0.00000
1254.85 -0.21497 -0.21497 -66.24880 -331.15 0.00 -201.91 -6.33313 1.16521 0.00000
1258.29 -0.26680 -0.26680 -26.39340 -297.64 0.00 -200.32 -6.33313 0.28306 0.00000
1259.84 -0.31872 -0.31872 8.47660 -263.68 0.00 -177.46 -6.33313 -0.49531 0.00000
1263.21 2.28741 2.28741 595.36066 -197.14 0.00 -132.68 -8.20813 -10.11593 0.00000
1264.85 2.24979 2.24979 582.78101 -104.64 0.00 -70.43 -8.20813 -9.89148 0.00000
1268.29 2.44244 2.44244 582.52173 -23.78 0.00 -16.01 -8.20813 -9.69343 0.00000
1269.85 2.63483 2.63483 583.36890 47.60 0.00 32.03 -8.20813 -9.51868 0.00000
1273.22 10.00000 10.00000 1209.20508 147.44 0.00 99.23 -14.39563 -15.19177 0.00000
1274.85 10.00000 10.00000 1204.70911 272.09 0.00 183.13 -14.39563 -15.09811 0.00000
1278.29 10.00000 10.00000 1200.74231 381.58 0.00 201.91 -14.39563 -15.01546 0.00000
1279.86 10.00000 10.00000 1197.24207 477.74 0.00 201.91 -14.39563 -14.94254 0.00000
1283.20 10.00000 10.00000 1537.21216 582.39 0.00 201.91 -15.89563 -22.02525 0.00000
1284.85 10.00000 10.00000 1502.59753 692.69 0.00 201.91 -15.89563 -21.30412 0.00000
1288.29 10.00000 10.00000 1472.05518 786.17 0.00 201.91 -15.89563 -20.66782 0.00000
1289.87 10.00000 10.00000 1445.10608 865.28 0.00 201.91 -15.89563 -20.10638 0.00000
1293.21 10.00000 10.00000 1100.68323 913.23 0.00 201.91 -19.45812 -12.93090 0.00000
1294.85 10.00000 10.00000 1137.54236 937.45 0.00 201.91 -19.45812 -13.69880 0.00000
1298.28 10.00000 10.00000 1170.06519 962.91 0.00 201.91 -19.45812 -14.37636 0.00000
1299.85 10.00000 10.00000 1198.76184 988.97 0.00 201.91 -19.45812 -14.97421 0.00000
1303.21 10.00000 10.00000 889.14404 995.44 0.00 201.91 -22.95812 -8.52383 0.00000
1304.85 10.00000 10.00000 970.65454 987.73 0.00 201.91 -22.95812 -10.22197 0.00000
1308.28 10.00000 10.00000 1042.57581 989.95 0.00 201.91 -22.95812 -11.72033 0.00000
1309.84 10.00000 10.00000 1106.03577 999.87 0.00 201.91 -22.95812 -13.04241 0.00000
1313.21 10.00000 10.00000 1576.55933 1040.04 0.00 201.91 -24.77062 -22.84499 0.00000
1314.85 10.00000 10.00000 1587.43286 1103.80 0.00 201.91 -24.77062 -23.07152 0.00000
1318.28 10.00000 10.00000 1597.02759 1161.26 0.00 201.91 -24.77062 -23.27141 0.00000
1319.86 10.00000 10.00000 1605.49365 1213.03 0.00 201.91 -24.77062 -23.44778 0.00000
1323.20 10.00000 10.00000 1713.02197 1265.52 0.00 201.91 -25.20812 -25.68796 0.00000
1324.85 10.00000 10.00000 1710.31165 1318.01 0.00 201.91 -25.20812 -25.63149 0.00000
1328.28 10.00000 10.00000 1707.92029 1364.02 0.00 201.91 -25.20812 -25.58167 0.00000
1329.85 10.00000 10.00000 1705.81018 1404.36 0.00 201.91 -25.20812 -25.53771 0.00000
1333.21 10.00000 10.00000 2318.59619 1475.87 0.00 201.91 -27.89562 -38.30408 0.00000
1334.85 10.00000 10.00000 2259.81812 1571.56 0.00 201.91 -27.89562 -37.07954 0.00000
1338.29 10.00000 10.00000 2207.95532 1649.48 0.00 201.91 -27.89562 -35.99907 0.00000
1339.86 10.00000 10.00000 2162.19434 1712.49 0.00 201.91 -27.89562 -35.04572 0.00000
1343.21 10.00000 10.00000 1950.28711 1752.93 0.00 201.91 -27.14562 -30.63098 0.00000
1344.85 10.00000 10.00000 1930.60437 1774.99 0.00 201.91 -27.14562 -30.22092 0.00000
1348.29 10.00000 10.00000 1913.23792 1792.28 0.00 201.91 -27.14562 -29.85912 0.00000
1349.87 10.00000 10.00000 1897.91418 1805.61 0.00 201.91 -27.14562 -29.53988 0.00000
1353.21 10.00000 10.00000 1812.92249 1811.47 0.00 201.91 -26.83312 -27.76922 0.00000
1354.84 10.00000 10.00000 1807.63586 1811.33 0.00 201.91 -26.83312 -27.65908 0.00000
1358.29 10.00000 10.00000 1802.97107 1810.62 0.00 201.91 -26.83312 -27.56190 0.00000
1359.85 10.00000 10.00000 1798.85486 1809.48 0.00 201.91 -26.83312 -27.47614 0.00000
1363.21 10.00000 10.00000 2023.92883 1821.47 0.00 201.91 -27.83312 -32.16518 0.00000
1364.85 10.00000 10.00000 1999.46484 1843.85 0.00 201.91 -27.83312 -31.65552 0.00000
1368.29 10.00000 10.00000 1977.87891 1860.88 0.00 201.91 -27.83312 -31.20581 0.00000
1369.84 10.00000 10.00000 1958.83228 1873.53 0.00 201.91 -27.83312 -30.80901 0.00000
1373.21 10.00000 10.00000 1341.67383 1847.26 0.00 201.91 -25.20812 -17.95154 0.00000
1374.85 10.00000 10.00000 1382.65173 1790.19 0.00 201.91 -25.20812 -18.80524 0.00000
1378.29 10.00000 10.00000 1418.80847 1744.37 0.00 201.91 -25.20812 -19.55851 0.00000
1379.84 10.00000 10.00000 1450.71130 1707.95 0.00 201.91 -25.20812 -20.22315 0.00000
1383.21 10.00000 10.00000 1478.86121 1679.34 0.00 201.91 -25.20812 -20.80961 0.00000
1384.85 10.00000 10.00000 1503.69910 1657.21 0.00 201.91 -25.20812 -21.32706 0.00000
1388.29 10.00000 10.00000 1525.61536 1640.44 0.00 201.91 -25.20812 -21.78365 0.00000
1389.85 10.00000 10.00000 1544.95276 1628.07 0.00 201.91 -25.20812 -22.18652 0.00000
1393.21 10.00000 10.00000 1204.66223 1598.27 0.00 201.91 -23.64562 -15.09713 0.00000
1394.84 10.00000 10.00000 1252.93579 1554.81 0.00 201.91 -23.64562 -16.10283 0.00000
1398.29 10.00000 10.00000 1295.53015 1521.80 0.00 201.91 -23.64562 -16.99021 0.00000
1399.86 10.00000 10.00000 1333.11328 1497.39 0.00 201.91 -23.64562 -17.77319 0.00000
1403.21 10.00000 10.00000 1601.15442 1493.83 0.00 201.91 -19.70812 -23.35738 0.00000
1404.85 10.00000 10.00000 1580.54626 1505.24 0.00 201.91 -19.70812 -22.92805 0.00000
1408.29 10.00000 10.00000 1562.36279 1513.03 0.00 201.91 -19.70812 -22.54922 0.00000
1409.86 10.00000 10.00000 1546.31873 1517.89 0.00 201.91 -19.70812 -22.21497 0.00000
1413.21 10.00000 10.00000 1374.92688 1511.16 0.00 201.91 -19.02062 -18.64431 0.00000
1414.85 10.00000 10.00000 1377.05164 1495.25 0.00 201.91 -19.02062 -18.68858 0.00000
1418.29 10.00000 10.00000 1378.92664 1481.46 0.00 201.91 -19.02062 -18.72764 0.00000
1419.85 10.00000 10.00000 1380.58081 1469.49 0.00 201.91 -19.02062 -18.76210 0.00000
1423.21 10.00000 10.00000 996.09924 1436.42 0.00 201.91 -17.33312 -10.75207 0.00000
1424.84 10.00000 10.00000 1033.26270 1386.80 0.00 201.91 -17.33312 -11.52631 0.00000
1428.28 10.00000 10.00000 1066.05396 1347.14 0.00 201.91 -17.33312 -12.20946 0.00000
1429.85 10.00000 10.00000 1094.98718 1315.77 0.00 201.91 -17.33312 -12.81223 0.00000
1433.21 10.00000 10.00000 1198.16064 1295.86 0.00 201.91 -12.70813 -14.96168 0.00000
1434.84 10.00000 10.00000 1185.43457 1283.62 0.00 201.91 -12.70813 -14.69655 0.00000
1438.31 10.00000 10.00000 1174.20532 1271.41 0.00 201.91 -12.70813 -14.46261 0.00000
1439.87 10.00000 10.00000 1164.29712 1259.39 0.00 201.91 -12.70813 -14.25619 0.00000
1443.20 10.00000 10.00000 1126.96680 1246.01 0.00 201.91 -12.58313 -13.47847 0.00000
1444.85 10.00000 10.00000 1121.91028 1231.70 0.00 201.91 -12.58313 -13.37313 0.00000
1448.29 10.00000 10.00000 1117.44873 1218.53 0.00 201.91 -12.58313 -13.28018 0.00000
1449.87 10.00000 10.00000 1113.51196 1206.40 0.00 201.91 -12.58313 -13.19817 0.00000
1453.21 10.00000 10.00000 1173.38843 1199.00 0.00 201.91 -7.89563 -14.44559 0.00000
1454.85 10.00000 10.00000 1136.40015 1193.81 0.00 201.91 -7.89563 -13.67500 0.00000
1458.29 10.00000 10.00000 1103.76343 1185.13 0.00 201.91 -7.89563 -12.99507 0.00000
1459.86 10.00000 10.00000 1074.96643 1173.87 0.00 201.91 -7.89563 -12.39513 0.00000
1463.21 10.00000 10.00000 1327.31885 1177.08 0.00 201.91 -4.14563 -17.65248 0.00000
1464.85 10.00000 10.00000 1251.04468 1190.26 0.00 201.91 -4.14563 -16.06343 0.00000
1468.28 10.00000 10.00000 1183.74414 1193.46 0.00 201.91 -4.14563 -14.66133 0.00000
1469.85 10.00000 10.00000 1124.36108 1188.82 0.00 201.91 -4.14563 -13.42419 0.00000
1473.21 10.00000 10.00000 514.49377 1145.36 0.00 201.91 -1.70812 -0.71862 0.00000
1474.85 10.00000 10.00000 520.08154 1071.47 0.00 201.91 -1.70812 -0.83503 0.00000
1478.31 10.00000 10.00000 525.01196 1006.89 0.00 201.91 -1.70812 -0.93775 0.00000
1479.87 10.00000 10.00000 529.36230 950.46 0.00 201.91 -1.70812 -1.02838 0.00000
1483.21 8.22276 8.22276 554.12537 902.37 0.00 201.91 2.79187 -3.32152 0.00000
1484.85 8.06818 8.06818 512.18317 858.93 0.00 201.91 2.79187 -2.60230 0.00000
1488.29 8.16615 8.16615 486.42432 816.62 0.00 201.91 2.79187 -1.96769 0.00000
1489.85 8.26411 8.26411 464.24927 776.47 0.00 201.91 2.79187 -1.40775 0.00000
1493.21 4.06749 4.06749 -447.02173 686.14 0.00 201.91 5.79187 13.38044 0.00000
1494.85 4.10151 4.10151 -402.53549 555.44 0.00 201.91 5.79187 12.48767 0.00000
1498.29 4.08421 4.08421 -365.55426 444.91 0.00 201.91 5.79187 11.69992 0.00000
1499.85 4.06701 4.06701 -333.01660 351.48 0.00 201.91 5.79187 11.00486 0.00000
1503.21 -0.02380 -0.02380 -1143.17261 223.29 0.00 150.28 8.60437 23.79230 0.00000
1504.84 -0.14879 -0.14879 -1063.40454 67.22 0.00 45.24 8.60437 22.00548 0.00000
1508.29 -0.35940 -0.35940 -997.83679 -61.93 0.00 -41.68 8.60437 20.42887 0.00000
1509.85 -0.56984 -0.56984 -941.16412 -168.71 0.00 -113.55 8.60437 19.03775 0.00000
1513.21 -7.91395 -7.91395 -1285.76697 -279.85 0.00 -188.35 13.79187 18.87286 0.00000
1514.85 -7.94367 -7.94367 -1258.50049 -396.59 0.00 -201.91 13.79187 18.27509 0.00000
1518.29 -7.99154 -7.99154 -1235.48108 -496.64 0.00 -201.91 13.79187 17.74765 0.00000
1519.88 -8.03921 -8.03921 -1215.43042 -582.38 0.00 -201.91 13.79187 17.28226 0.00000
1523.21 -10.00000 -10.00000 -1632.89612 -681.42 0.00 -201.91 15.29187 24.01867 0.00000
1524.85 -10.00000 -10.00000 -1583.61511 -790.46 0.00 -201.91 15.29187 22.99198 0.00000
1528.29 -10.00000 -10.00000 -1540.13196 -881.21 0.00 -201.91 15.29187 22.08608 0.00000
1529.87 -10.00000 -10.00000 -1501.76440 -956.47 0.00 -201.91 15.29187 21.28676 0.00000
1533.22 -10.00000 -10.00000 -1418.85498 -1015.75 0.00 -201.91 20.04188 19.55948 0.00000
1534.85 -10.00000 -10.00000 -1421.57849 -1063.33 0.00 -201.91 20.04188 19.61622 0.00000
1538.29 -10.00000 -10.00000 -1423.98157 -1105.62 0.00 -201.91 20.04188 19.66628 0.00000
1539.85 -10.00000 -10.00000 -1426.10193 -1143.20 0.00 -201.91 20.04188 19.71046 0.00000
1543.21 -10.00000 -10.00000 -1971.14941 -1208.54 0.00 -201.91 22.41688 31.06561 0.00000
1544.85 -10.00000 -10.00000 -1922.30859 -1295.39 0.00 -201.91 22.41688 30.04810 0.00000
1548.29 -10.00000 -10.00000 -1879.21436 -1366.61 0.00 -201.91 22.41688 29.15030 0.00000
1549.85 -10.00000 -10.00000 -1841.18994 -1424.68 0.00 -201.91 22.41688 28.35812 0.00000
1553.21 -10.00000 -10.00000 -1807.63843 -1471.71 0.00 -201.91 22.41688 27.65913 0.00000
1554.85 -10.00000 -10.00000 -1778.03467 -1509.49 0.00 -201.91 22.41688 27.04239 0.00000
1558.29 -10.00000 -10.00000 -1751.91357 -1539.54 0.00 -201.91 22.41688 26.49820 0.00000
1559.85 -10.00000 -10.00000 -1728.86572 -1563.17 0.00 -201.91 22.41688 26.01804 0.00000
1563.20 -10.00000 -10.00000 -2151.64673 -1607.54 0.00 -201.91 24.35438 34.82597 0.00000
1564.85 -10.00000 -10.00000 -2092.51245 -1668.07 0.00 -201.91 24.35438 33.59401 0.00000
1568.29 -10.00000 -10.00000 -2040.33545 -1714.93 0.00 -201.91 24.35438 32.50699 0.00000
1569.85 -10.00000 -10.00000 -1994.29688 -1750.51 0.00 -201.91 24.35438 31.54785 0.00000
1573.21 -10.00000 -10.00000 -2210.96851 -1791.94 0.00 -201.91 25.47938 36.06184 0.00000
1574.85 -10.00000 -10.00000 -2151.20801 -1837.72 0.00 -201.91 25.47938 34.81683 0.00000
1578.29 -10.00000 -10.00000 -2098.47876 -1871.50 0.00 -201.91 25.47938 33.71831 0.00000
1579.85 -10.00000 -10.00000 -2051.95239 -1895.46 0.00 -201.91 25.47938 32.74901 0.00000
1583.21 -10.00000 -10.00000 -1553.48804 -1884.55 0.00 -201.91 23.47938 22.36433 0.00000
1584.84 -10.00000 -10.00000 -1559.78394 -1845.97 0.00 -201.91 23.47938 22.49550 0.00000
1588.29 -10.00000 -10.00000 -1565.33936 -1812.63 0.00 -201.91 23.47938 22.61124 0.00000
1589.85 -10.00000 -10.00000 -1570.24146 -1783.83 0.00 -201.91 23.47938 22.71336 0.00000
1593.21 -10.00000 -10.00000 -2146.33154 -1792.59 0.00 -201.91 25.97938 34.71524 0.00000
1594.85 -10.00000 -10.00000 -2096.99927 -1831.30 0.00 -201.91 25.97938 33.68748 0.00000
1598.29 -10.00000 -10.00000 -2053.47070 -1860.00 0.00 -201.91 25.97938 32.78064 0.00000
1599.86 -10.00000 -10.00000 -2015.06323 -1880.50 0.00 -201.91 25.97938 31.98048 0.00000
1603.21 -10.00000 -10.00000 -2273.22949 -1911.52 0.00 -201.91 22.29188 37.35895 0.00000
1604.84 -10.00000 -10.00000 -2188.14478 -1949.07 0.00 -201.91 22.29188 35.58635 0.00000
1608.29 -10.00000 -10.00000 -2113.06934 -1972.78 0.00 -201.91 22.29188 34.02228 0.00000
1609.84 -10.00000 -10.00000 -2046.82690 -1985.39 0.00 -201.91 22.29188 32.64223 0.00000
1613.21 -10.00000 -10.00000 -2288.55396 -2006.83 0.00 -201.91 23.60438 37.67821 0.00000
1614.85 -10.00000 -10.00000 -2209.07764 -2035.30 0.00 -201.91 23.60438 36.02245 0.00000
1618.29 -10.00000 -10.00000 -2138.95117 -2051.62 0.00 -201.91 23.60438 34.56149 0.00000
1619.86 -10.00000 -10.00000 -2077.07568 -2058.26 0.00 -201.91 23.60438 33.27241 0.00000
1623.20 -10.00000 -10.00000 -1693.71423 -2037.92 0.00 -201.91 22.16688 25.28571 0.00000
1624.85 -10.00000 -10.00000 -1676.10132 -1996.39 0.00 -201.91 22.16688 24.91878 0.00000
1628.29 -10.00000 -10.00000 -1660.56042 -1957.79 0.00 -201.91 22.16688 24.59501 0.00000
1629.86 -10.00000 -10.00000 -1646.84802 -1922.02 0.00 -201.91 22.16688 24.30933 0.00000
1633.21 -10.00000 -10.00000 -1955.39282 -1907.79 0.00 -201.91 18.60438 30.73735 0.00000
1634.85 -10.00000 -10.00000 -1886.87659 -1909.36 0.00 -201.91 18.60438 29.30993 0.00000
1638.29 -10.00000 -10.00000 -1826.42102 -1903.16 0.00 -201.91 18.60438 28.05044 0.00000
1639.87 -10.00000 -10.00000 -1773.07800 -1891.00 0.00 -201.91 18.60438 26.93913 0.00000
1643.21 -10.00000 -10.00000 -1597.36340 -1866.79 0.00 -201.91 18.04188 23.27840 0.00000
1644.85 -10.00000 -10.00000 -1567.79187 -1833.35 0.00 -201.91 18.04188 22.66233 0.00000
1648.29 -10.00000 -10.00000 -1541.69934 -1800.57 0.00 -201.91 18.04188 22.11874 0.00000
1649.85 -10.00000 -10.00000 -1518.67676 -1768.76 0.00 -201.91 18.04188 21.63910 0.00000
1653.21 -10.00000 -10.00000 -940.89185 -1705.35 0.00 -201.91 15.60437 9.60191 0.00000
1654.85 -10.00000 -10.00000 -974.78760 -1617.41 0.00 -201.91 15.60437 10.30807 0.00000
1658.29 -10.00000 -10.00000 -1004.69568 -1543.57 0.00 -201.91 15.60437 10.93116 0.00000
1659.85 -10.00000 -10.00000 -1031.08521 -1481.72 0.00 -201.91 15.60437 11.48094 0.00000
1663.21 -10.00000 -10.00000 -989.07275 -1426.24 0.00 -201.91 10.35437 10.60568 0.00000
1664.84 -10.00000 -10.00000 -987.65350 -1374.72 0.00 -201.91 10.35437 10.57611 0.00000
1668.29 -10.00000 -10.00000 -986.40106 -1329.11 0.00 -201.91 10.35437 10.55002 0.00000
1669.86 -10.00000 -10.00000 -985.29602 -1288.73 0.00 -201.91 10.35437 10.52700 0.00000
1673.21 -10.00000 -10.00000 -1084.37988 -1258.86 0.00 -201.91 10.79187 12.59125 0.00000
1674.85 -10.00000 -10.00000 -1074.21863 -1237.73 0.00 -201.91 10.79187 12.37955 0.00000
1678.29 -10.00000 -10.00000 -1065.25293 -1217.97 0.00 -201.91 10.79187 12.19277 0.00000
1679.86 -10.00000 -10.00000 -1057.34180 -1199.54 0.00 -201.91 10.79187 12.02795 0.00000
1683.21 -10.00000 -10.00000 -913.59357 -1174.35 0.00 -201.91 5.22937 9.03320 0.00000
1684.85 -10.00000 -10.00000 -892.11304 -1142.41 0.00 -201.91 5.22937 8.58569 0.00000
1688.29 -10.00000 -10.00000 -873.15955 -1111.85 0.00 -201.91 5.22937 8.19082 0.00000
1689.85 -10.00000 -10.00000 -856.43604 -1082.78 0.00 -201.91 5.22937 7.84242 0.00000
1693.21 -7.92985 -7.92985 -948.60352 -1061.58 0.00 -201.91 1.16688 11.83273 0.00000
1694.85 -8.07699 -8.07699 -895.43567 -1045.16 0.00 -201.91 1.16688 10.57792 0.00000
1698.29 -8.18976 -8.18976 -847.70374 -1024.74 0.00 -201.91 1.16688 9.47074 0.00000
1699.85 -8.30252 -8.30252 -806.22382 -1001.47 0.00 -201.91 1.16688 8.49381 0.00000
1703.21 -7.38306 -7.38306 -549.18475 -963.38 0.00 -201.91 0.41688 4.05829 0.00000
1704.85 -7.52107 -7.52107 -535.24591 -913.83 0.00 -201.91 0.41688 3.62989 0.00000
1708.29 -7.52676 -7.52676 -517.37482 -868.24 0.00 -201.91 0.41688 3.25188 0.00000
1709.86 -7.53256 -7.53256 -501.64389 -826.04 0.00 -201.91 0.41688 2.91835 0.00000
1713.21 0.60027 0.60027 96.80228 -752.67 0.00 -201.91 -5.39563 -1.41644 0.00000
1714.85 0.53742 0.53742 116.25579 -651.59 0.00 -201.91 -5.39563 -1.88458 0.00000
1718.29 0.71649 0.71649 144.67844 -559.58 0.00 -201.91 -5.39563 -2.29764 0.00000
1719.85 0.89546 0.89546 170.76309 -475.19 0.00 -201.91 -5.39563 -2.66211 0.00000
1723.21 5.57564 5.57564 33.02813 -407.30 0.00 -201.91 -8.70813 4.88756 0.00000
1724.85 5.58458 5.58458 110.23279 -350.95 0.00 -201.91 -8.70813 3.28807 0.00000
1728.29 5.82008 5.82008 189.27963 -292.05 0.00 -196.56 -8.70813 1.87675 0.00000
1729.86 6.05539 6.05539 260.34784 -231.24 0.00 -155.63 -8.70813 0.63147 0.00000
1733.21 7.80338 7.80338 682.87524 -148.55 0.00 -99.98 -9.95813 -6.42318 0.00000
1734.84 7.78886 7.78886 702.14001 -49.60 0.00 -33.38 -9.95813 -6.83906 0.00000
1738.29 7.77139 7.77139 718.91473 39.82 0.00 26.80 -9.95813 -7.20601 0.00000
1739.86 7.75391 7.75391 733.61707 120.58 0.00 81.16 -9.95813 -7.52978 0.00000
1743.22 10.00000 10.00000 1192.02759 219.67 0.00 147.84 -16.39562 -14.83391 0.00000
1744.85 10.00000 10.00000 1200.84631 334.58 0.00 201.91 -16.39562 -15.01763 0.00000
1748.29 10.00000 10.00000 1208.62756 436.95 0.00 201.91 -16.39562 -15.17974 0.00000
1749.85 10.00000 10.00000 1215.49365 528.14 0.00 201.91 -16.39562 -15.32278 0.00000
1753.21 10.00000 10.00000 1836.19885 645.52 0.00 201.91 -19.08312 -28.25414 0.00000
1754.84 10.00000 10.00000 1784.40894 782.55 0.00 201.91 -19.08312 -27.17519 0.00000
1758.28 10.00000 10.00000 1738.71204 897.73 0.00 201.91 -19.08312 -26.22317 0.00000
1759.86 10.00000 10.00000 1698.39111 994.30 0.00 201.91 -19.08312 -25.38315 0.00000
1763.21 10.00000 10.00000 1891.52014 1088.49 0.00 201.91 -20.08312 -29.40667 0.00000
1764.84 10.00000 10.00000 1838.86926 1179.87 0.00 201.91 -20.08312 -28.30978 0.00000
1768.29 10.00000 10.00000 1792.41248 1254.67 0.00 201.91 -20.08312 -27.34193 0.00000
1769.86 10.00000 10.00000 1751.42139 1315.52 0.00 201.91 -20.08312 -26.48795 0.00000
1773.21 10.00000 10.00000 1966.37292 1379.45 0.00 201.91 -26.14562 -30.96610 0.00000
1774.84 10.00000 10.00000 1939.15063 1446.89 0.00 201.91 -26.14562 -30.39897 0.00000
1778.29 10.00000 10.00000 1915.13086 1503.39 0.00 201.91 -26.14562 -29.89856 0.00000
1779.85 10.00000 10.00000 1893.93677 1550.59 0.00 201.91 -26.14562 -29.45702 0.00000
1783.21 10.00000 10.00000 1532.17749 1569.70 0.00 201.91 -24.64562 -21.92036 0.00000
1784.84 10.00000 10.00000 1547.56677 1566.19 0.00 201.91 -24.64562 -22.24097 0.00000
1788.29 10.00000 10.00000 1561.14514 1564.80 0.00 201.91 -24.64562 -22.52386 0.00000
1789.85 10.00000 10.00000 1573.12610 1565.07 0.00 201.91 -24.64562 -22.77346 0.00000
1793.21 10.00000 10.00000 2155.46240 1600.28 0.00 201.91 -27.14562 -34.90546 0.00000
1794.84 10.00000 10.00000 2111.64160 1663.01 0.00 201.91 -27.14562 -33.99253 0.00000
1798.29 10.00000 10.00000 2072.97607 1713.52 0.00 201.91 -27.14562 -33.18700 0.00000
1799.86 10.00000 10.00000 2038.85999 1753.80 0.00 201.91 -27.14562 -32.47625 0.00000
1803.21 10.00000 10.00000 2323.22803 1804.07 0.00 201.91 -28.52062 -38.40058 0.00000
1804.85 10.00000 10.00000 2267.43457 1861.86 0.00 201.91 -28.52062 -37.23822 0.00000
1808.29 10.00000 10.00000 2218.20557 1906.68 0.00 201.91 -28.52062 -36.21262 0.00000
1809.84 10.00000 10.00000 2174.76782 1940.77 0.00 201.91 -28.52062 -35.30766 0.00000
1813.20 10.00000 10.00000 1736.20532 1942.51 0.00 201.91 -26.77062 -26.17094 0.00000
1814.85 10.00000 10.00000 1739.59094 1918.43 0.00 201.91 -26.77062 -26.24148 0.00000
1818.29 10.00000 10.00000 1742.57849 1897.57 0.00 201.91 -26.77062 -26.30372 0.00000
1819.85 10.00000 10.00000 1745.21448 1879.49 0.00 201.91 -26.77062 -26.35863 0.00000
1823.21 10.00000 10.00000 2219.24609 1891.58 0.00 201.91 -28.83312 -36.23429 0.00000
1824.84 10.00000 10.00000 2177.45068 1927.67 0.00 201.91 -28.83312 -35.36356 0.00000
1828.28 10.00000 10.00000 2140.57251 1954.88 0.00 201.91 -28.83312 -34.59526 0.00000
1829.84 10.00000 10.00000 2108.03247 1974.82 0.00 201.91 -28.83312 -33.91734 0.00000
1833.22 10.00000 10.00000 1679.08594 1965.26 0.00 201.91 -27.08312 -24.98096 0.00000
1834.85 10.00000 10.00000 1690.95703 1932.29 0.00 201.91 -27.08312 -25.22827 0.00000
1838.29 10.00000 10.00000 1701.43140 1904.51 0.00 201.91 -27.08312 -25.44649 0.00000
1839.88 10.00000 10.00000 1710.67383 1881.16 0.00 201.91 -27.08312 -25.63904 0.00000
1843.21 10.00000 10.00000 1275.71045 1835.52 0.00 201.91 -25.14562 -16.57730 0.00000
1844.85 10.00000 10.00000 1324.09644 1772.51 0.00 201.91 -25.14562 -17.58534 0.00000
1848.29 10.00000 10.00000 1366.78931 1722.26 0.00 201.91 -25.14562 -18.47478 0.00000
1849.87 10.00000 10.00000 1404.45996 1682.66 0.00 201.91 -25.14562 -19.25958 0.00000
1853.21 10.00000 10.00000 1351.93359 1646.84 0.00 201.91 -24.77062 -18.16528 0.00000
1854.84 10.00000 10.00000 1389.23364 1614.34 0.00 201.91 -24.77062 -18.94237 0.00000
1858.29 10.00000 10.00000 1422.14575 1589.79 0.00 201.91 -24.77062 -19.62804 0.00000
1859.85 10.00000 10.00000 1451.18628 1571.78 0.00 201.91 -24.77062 -20.23305 0.00000
1863.21 10.00000 10.00000 804.98657 1519.58 0.00 201.91 -21.83312 -6.77055 0.00000
1864.85 10.00000 10.00000 890.04529 1440.51 0.00 201.91 -21.83312 -8.54261 0.00000
1868.28 10.00000 10.00000 965.09729 1380.17 0.00 201.91 -21.83312 -10.10619 0.00000
1869.85 10.00000 10.00000 1031.31958 1335.23 0.00 201.91 -21.83312 -11.48582 0.00000
1873.20 10.00000 10.00000 546.57458 1270.96 0.00 201.91 -19.45812 -1.38697 0.00000
1874.85 10.00000 10.00000 648.62329 1191.74 0.00 201.91 -19.45812 -3.51299 0.00000
1878.29 10.00000 10.00000 738.66614 1133.14 0.00 201.91 -19.45812 -5.38888 0.00000
1879.87 10.00000 10.00000 818.11560 1091.41 0.00 201.91 -19.45812 -7.04408 0.00000
1883.20 10.00000 10.00000 430.80652 1036.47 0.00 201.91 -17.45812 1.02486 0.00000
1884.84 10.00000 10.00000 535.18103 971.36 0.00 201.91 -17.45812 -1.14960 0.00000
1888.29 10.00000 10.00000 627.27612 925.46 0.00 201.91 -17.45812 -3.06825 0.00000
1889.86 10.00000 10.00000 708.53650 895.16 0.00 201.91 -17.45812 -4.76118 0.00000
1893.21 10.00000 10.00000 65.53088 835.38 0.00 201.91 -14.33313 8.63477 0.00000
1894.85 10.00000 10.00000 195.23163 752.44 0.00 201.91 -14.33313 5.93267 0.00000
1898.29 10.00000 10.00000 309.67346 693.62 0.00 201.91 -14.33313 3.54847 0.00000
1899.84 10.00000 10.00000 410.65137 654.39 0.00 201.91 -14.33313 1.44476 0.00000
1903.21 10.00000 10.00000 820.39362 649.81 0.00 201.91 -10.77063 -7.09153 0.00000
1904.85 10.00000 10.00000 841.16949 671.10 0.00 201.91 -10.77063 -7.52436 0.00000
1908.29 10.00000 10.00000 859.50110 692.19 0.00 201.91 -10.77063 -7.90627 0.00000
1909.85 10.00000 10.00000 875.67609 712.83 0.00 201.91 -10.77063 -8.24325 0.00000
1913.20 10.00000 10.00000 332.47742 700.03 0.00 201.91 -8.33313 3.07339 0.00000
1914.85 10.00000 10.00000 396.89044 660.58 0.00 201.91 -8.33313 1.73145 0.00000
1918.28 10.00000 10.00000 453.72546 632.90 0.00 201.91 -8.33313 0.54739 0.00000
1919.84 10.00000 10.00000 503.87402 614.77 0.00 201.91 -8.33313 -0.49738 0.00000
1923.21 10.00000 10.00000 597.17847 607.21 0.00 201.91 -3.58313 -2.44122 0.00000
1924.85 10.00000 10.00000 603.62683 606.41 0.00 201.91 -3.58313 -2.57556 0.00000
1928.29 10.00000 10.00000 609.31659 606.42 0.00 201.91 -3.58313 -2.69410 0.00000
1929.85 10.00000 10.00000 614.33698 607.05 0.00 201.91 -3.58313 -2.79869 0.00000
1933.21 10.00000 10.00000 939.41052 627.03 0.00 201.91 -0.02062 -9.57105 0.00000
1934.84 10.00000 10.00000 885.47876 660.61 0.00 201.91 -0.02062 -8.44747 0.00000
1938.29 10.00000 10.00000 837.89185 684.27 0.00 201.91 -0.02062 -7.45608 0.00000
1939.84 10.00000 10.00000 795.90326 699.87 0.00 201.91 -0.02062 -6.58132 0.00000
1942.95 10.00000 10.00000 758.85468 708.99 0.00 201.91 -0.02062 -5.80947 0.00000
1945.22 10.00000 10.00000 40.04713 672.57 0.00 201.91 2.97937 9.16568 0.00000
1948.29 10.00000 10.00000 74.98169 600.21 0.00 201.91 2.97937 8.43788 0.00000
1949.87 9.99506 9.99506 105.56895 540.22 0.00 201.91 2.97937 7.79570 0.00000
1952.84 10.00000 10.00000 133.00443 490.70 0.00 201.91 2.97937 7.22907 0.00000
1955.22 3.32707 3.32707 -128.53621 433.23 0.00 201.91 7.79187 6.00491 0.00000
1958.28 3.28946 3.28946 -140.43280 366.44 0.00 201.91 7.79187 6.21514 0.00000
1959.85 3.25245 3.25245 -151.11295 306.18 0.00 201.91 7.79187 6.40064 0.00000
1962.84 3.29504 3.29504 -156.92488 252.04 0.00 169.63 7.79187 6.56431 0.00000
1965.22 -0.21671 -0.21671 -904.18567 159.97 0.00 107.67 10.29187 18.62049 0.00000
1968.31 -0.27310 -0.27310 -859.86023 37.38 0.00 25.16 10.29187 17.64066 0.00000
1969.87 -0.32916 -0.32916 -821.05151 -65.89 0.00 -44.35 10.29187 16.77608 0.00000
1972.84 -0.43871 -0.43871 -789.69312 -152.89 0.00 -102.90 10.29187 16.01323 0.00000
1975.22 -7.03445 -7.03445 -982.04150 -239.12 0.00 -160.94 14.85437 13.42475 0.00000
1978.29 -7.09861 -7.09861 -993.19421 -327.18 0.00 -201.91 14.85437 13.59293 0.00000
1979.85 -7.16157 -7.16157 -1003.33911 -406.13 0.00 -201.91 14.85437 13.74133 0.00000
1982.84 -7.24064 -7.24064 -1013.41974 -476.98 0.00 -201.91 14.85437 13.87227 0.00000
1985.22 -10.00000 -10.00000 -887.94763 -532.71 0.00 -201.91 18.66688 8.49891 0.00000
1988.29 -10.00000 -10.00000 -945.36658 -577.88 0.00 -201.91 18.66688 9.69514 0.00000
1989.87 -10.00000 -10.00000 -996.03040 -624.10 0.00 -201.91 18.66688 10.75063 0.00000
1992.84 -10.00000 -10.00000 -1040.73376 -670.48 0.00 -201.91 18.66688 11.68195 0.00000
1995.22 -10.00000 -10.00000 -673.76917 -692.46 0.00 -201.91 21.85438 4.03686 0.00000
1998.30 -10.00000 -10.00000 -774.38562 -696.18 0.00 -201.91 21.85438 6.13303 0.00000
1999.86 -10.00000 -10.00000 -863.16467 -710.60 0.00 -201.91 21.85438 7.98260 0.00000
2002.84 -10.00000 -10.00000 -941.49902 -733.16 0.00 -201.91 21.85438 9.61456 0.00000
2005.22 -10.00000 -10.00000 -1639.55859 -798.73 0.00 -201.91 24.60438 24.15747 0.00000
2008.28 -10.00000 -10.00000 -1642.08179 -897.80 0.00 -201.91 24.60438 24.21004 0.00000
2009.86 -10.00000 -10.00000 -1644.30835 -985.49 0.00 -201.91 24.60438 24.25642 0.00000
2012.84 -10.00000 -10.00000 -1646.27271 -1063.12 0.00 -201.91 24.60438 24.29735 0.00000
2015.23 -10.00000 -10.00000 -1327.36230 -1112.96 0.00 -201.91 28.16688 17.65338 0.00000
2018.29 -10.00000 -10.00000 -1386.73242 -1141.68 0.00 -201.91 28.16688 18.89026 0.00000
2019.85 -10.00000 -10.00000 -1439.11816 -1173.59 0.00 -201.91 28.16688 19.98163 0.00000
2022.86 -10.00000 -10.00000 -1485.34058 -1207.55 0.00 -201.91 28.16688 20.94460 0.00000
2025.24 -10.00000 -10.00000 -1340.30200 -1231.70 0.00 -201.91 27.35438 17.92296 0.00000
2028.29 -10.00000 -10.00000 -1393.56152 -1247.61 0.00 -201.91 27.35438 19.03253 0.00000
2029.86 -10.00000 -10.00000 -1440.55518 -1267.54 0.00 -201.91 27.35438 20.01157 0.00000
2032.84 -10.00000 -10.00000 -1482.01978 -1290.34 0.00 -201.91 27.35438 20.87541 0.00000
2035.22 -10.00000 -10.00000 -2133.25342 -1351.19 0.00 -201.91 30.04188 34.44278 0.00000
2038.31 -10.00000 -10.00000 -2108.40088 -1441.74 0.00 -201.91 30.04188 33.92502 0.00000
2039.87 -10.00000 -10.00000 -2086.47217 -1518.88 0.00 -201.91 30.04188 33.46817 0.00000
2042.84 -10.00000 -10.00000 -2067.12305 -1584.52 0.00 -201.91 30.04188 33.06506 0.00000
2045.23 -10.00000 -10.00000 -2107.22681 -1643.65 0.00 -201.91 30.29188 33.90056 0.00000
2048.31 -10.00000 -10.00000 -2086.84863 -1696.99 0.00 -201.91 30.29188 33.47601 0.00000
2049.85 -10.00000 -10.00000 -2068.86768 -1741.80 0.00 -201.91 30.29188 33.10141 0.00000
2052.84 -10.00000 -10.00000 -2053.00195 -1779.35 0.00 -201.91 30.29188 32.77087 0.00000
2055.22 -10.00000 -10.00000 -1996.12061 -1808.19 0.00 -201.91 30.10438 31.58585 0.00000
2058.31 -10.00000 -10.00000 -1987.75415 -1829.81 0.00 -201.91 30.10438 31.41154 0.00000
2059.85 -10.00000 -10.00000 -1980.37207 -1847.96 0.00 -201.91 30.10438 31.25775 0.00000
2062.84 -10.00000 -10.00000 -1973.85864 -1863.15 0.00 -201.91 30.10438 31.12206 0.00000
2065.22 -10.00000 -10.00000 -2039.58179 -1880.04 0.00 -201.91 30.41688 32.49129 0.00000
2068.30 -10.00000 -10.00000 -2027.86670 -1898.12 0.00 -201.91 30.41688 32.24722 0.00000
2069.86 -10.00000 -10.00000 -2017.53003 -1912.78 0.00 -201.91 30.41688 32.03188 0.00000
2072.84 -10.00000 -10.00000 -2008.40918 -1924.57 0.00 -201.91 30.41688 31.84186 0.00000
2075.21 -10.00000 -10.00000 -1771.65527 -1920.50 0.00 -201.91 29.41688 26.90948 0.00000
2078.32 -10.00000 -10.00000 -1785.81445 -1903.82 0.00 -201.91 29.41688 27.20447 0.00000
2079.85 -10.00000 -10.00000 -1798.30737 -1890.68 0.00 -201.91 29.41688 27.46474 0.00000
2082.84 -10.00000 -10.00000 -1809.33032 -1880.46 0.00 -201.91 29.41688 27.69438 0.00000
2085.22 -10.00000 -10.00000 -1418.82202 -1849.12 0.00 -201.91 27.66688 19.55879 0.00000
2088.28 -10.00000 -10.00000 -1464.60791 -1801.19 0.00 -201.91 27.66688 20.51266 0.00000
2089.87 -10.00000 -10.00000 -1505.00757 -1763.97 0.00 -201.91 27.66688 21.35432 0.00000
2092.84 -10.00000 -10.00000 -1540.65454 -1735.60 0.00 -201.91 27.66688 22.09697 0.00000
2095.22 -10.00000 -10.00000 -1543.51904 -1712.83 0.00 -201.91 27.54188 22.15665 0.00000
2098.31 -10.00000 -10.00000 -1573.92920 -1694.70 0.00 -201.91 27.54188 22.79019 0.00000
2099.85 -10.00000 -10.00000 -1600.76147 -1682.07 0.00 -201.91 27.54188 23.34920 0.00000
2102.84 -10.00000 -10.00000 -1624.43701 -1673.90 0.00 -201.91 27.54188 23.84244 0.00000
2105.22 -10.00000 -10.00000 -1951.67761 -1687.33 0.00 -201.91 23.91688 30.65995 0.00000
2108.28 -10.00000 -10.00000 -1913.59827 -1716.19 0.00 -201.91 23.91688 29.86663 0.00000
2109.85 -10.00000 -10.00000 -1879.99915 -1737.44 0.00 -201.91 23.91688 29.16665 0.00000
2112.84 -10.00000 -10.00000 -1850.35291 -1752.46 0.00 -201.91 23.91688 28.54902 0.00000
2115.24 -10.00000 -10.00000 -1381.07703 -1736.38 0.00 -201.91 21.97938 18.77244 0.00000
2118.29 -10.00000 -10.00000 -1399.18616 -1695.64 0.00 -201.91 21.97938 19.14971 0.00000
2119.86 -10.00000 -10.00000 -1415.16504 -1661.70 0.00 -201.91 21.97938 19.48260 0.00000
2122.84 -10.00000 -10.00000 -1429.26379 -1633.53 0.00 -201.91 21.97938 19.77633 0.00000
2125.23 -10.00000 -10.00000 -1041.46875 -1586.69 0.00 -201.91 20.22938 11.69727 0.00000
2128.28 -10.00000 -10.00000 -1089.64966 -1525.38 0.00 -201.91 20.22938 12.70103 0.00000
2129.85 -10.00000 -10.00000 -1132.16235 -1476.62 0.00 -201.91 20.22938 13.58672 0.00000
2132.84 -10.00000 -10.00000 -1169.67371 -1438.30 0.00 -201.91 20.22938 14.36820 0.00000
2135.22 -10.00000 -10.00000 -994.53296 -1396.39 0.00 -201.91 14.35437 10.71944 0.00000
2138.28 -10.00000 -10.00000 -1015.05945 -1350.32 0.00 -201.91 14.35437 11.14707 0.00000
2139.85 -10.00000 -10.00000 -1033.17114 -1311.94 0.00 -201.91 14.35437 11.52440 0.00000
2142.84 -10.00000 -10.00000 -1049.15186 -1280.09 0.00 -201.91 14.35437 11.85733 0.00000
2145.22 -10.00000 -10.00000 -748.78198 -1235.25 0.00 -201.91 12.97937 5.59962 0.00000
2148.29 -10.00000 -10.00000 -790.45551 -1180.47 0.00 -201.91 12.97937 6.46782 0.00000
2149.85 -10.00000 -10.00000 -827.22638 -1136.75 0.00 -201.91 12.97937 7.23388 0.00000
2152.84 -10.00000 -10.00000 -859.67120 -1102.24 0.00 -201.91 12.97937 7.90982 0.00000
2155.23 -10.00000 -10.00000 -1223.23730 -1095.09 0.00 -201.91 9.47937 15.48411 0.00000
2158.29 -10.00000 -10.00000 -1189.32812 -1108.17 0.00 -201.91 9.47937 14.77767 0.00000
2159.85 -10.00000 -10.00000 -1159.40820 -1115.96 0.00 -201.91 9.47937 14.15434 0.00000
2162.83 -10.00000 -10.00000 -1133.00830 -1119.52 0.00 -201.91 9.47937 13.60434 0.00000
2165.22 -10.00000 -10.00000 -1173.06396 -1123.46 0.00 -201.91 4.79187 14.43883 0.00000
2168.31 -10.00000 -10.00000 -1118.58679 -1126.09 0.00 -201.91 4.79187 13.30389 0.00000
2169.84 -10.00000 -10.00000 -1070.51892 -1122.38 0.00 -201.91 4.79187 12.30248 0.00000
2172.84 -10.00000 -10.00000 -1028.10596 -1113.79 0.00 -201.91 4.79187 11.41887 0.00000
2175.22 -10.00000 -10.00000 -418.91812 -1067.87 0.00 -201.91 2.29187 -1.27254 0.00000
2178.28 -10.00000 -10.00000 -439.04654 -992.71 0.00 -201.91 2.29187 -0.85320 0.00000
2179.85 -10.00000 -10.00000 -456.80688 -928.62 0.00 -201.91 2.29187 -0.48319 0.00000
2182.84 -10.00000 -10.00000 -472.47778 -874.03 0.00 -201.91 2.29187 -0.15671 0.00000
2185.23 -6.52300 -6.52300 -454.22968 -825.72 0.00 -201.91 -2.08313 2.94011 0.00000
2188.31 -6.40354 -6.40354 -420.12878 -780.01 0.00 -201.91 -2.08313 2.34915 0.00000
2189.88 -6.28409 -6.28409 -389.36591 -735.86 0.00 -201.91 -2.08313 1.82770 0.00000
2192.84 -6.37231 -6.37231 -371.51593 -694.04 0.00 -201.91 -2.08313 1.36761 0.00000
2195.24 -0.77358 -0.77358 -303.87558 -652.12 0.00 -201.91 -6.08313 5.55716 0.00000
2198.29 -0.82972 -0.82972 -240.83710 -607.44 0.00 -201.91 -6.08313 4.18772 0.00000
2199.85 -0.88591 -0.88591 -185.53415 -561.06 0.00 -201.91 -6.08313 2.97938 0.00000
2202.85 -0.87859 -0.87859 -134.00641 -513.85 0.00 -201.91 -6.08313 1.91321 0.00000
2205.23 0.90537 0.90537 282.66165 -444.65 0.00 -201.91 -7.33313 -4.98342 0.00000
2208.31 0.89283 0.89283 295.32822 -358.34 0.00 -201.91 -7.33313 -5.25985 0.00000
2209.87 0.88015 0.88015 306.42764 -280.78 0.00 -188.98 -7.33313 -5.50376 0.00000
2212.84 0.83219 0.83219 314.45599 -211.23 0.00 -142.16 -7.33313 -5.71898 0.00000
2215.23 8.60385 8.60385 819.08459 -119.70 0.00 -80.56 -12.83313 -8.46041 0.00000
2218.31 8.83142 8.83142 854.70062 -7.16 0.00 -4.82 -12.83313 -8.97484 0.00000
2219.85 9.05743 9.05743 887.33667 96.16 0.00 64.72 -12.83313 -9.42875 0.00000
2222.84 9.31683 9.31683 919.01257 191.10 0.00 128.62 -12.83313 -9.82927 0.00000
2225.22 10.00000 10.00000 576.65295 256.60 0.00 172.70 -16.08312 -2.01360 0.00000
2228.28 10.00000 10.00000 656.10425 298.92 0.00 201.19 -16.08312 -3.66884 0.00000
2229.85 10.00000 10.00000 726.20837 345.07 0.00 201.91 -16.08312 -5.12934 0.00000
2232.84 10.00000 10.00000 788.06470 393.55 0.00 201.91 -16.08312 -6.41801 0.00000
2235.21 10.00000 10.00000 1285.76147 469.24 0.00 201.91 -18.02062 -16.78670 0.00000
2238.29 10.00000 10.00000 1292.72900 565.71 0.00 201.91 -18.02062 -16.93185 0.00000
2239.85 10.00000 10.00000 1298.87695 651.60 0.00 201.91 -18.02062 -17.05994 0.00000
2242.84 10.00000 10.00000 1304.30164 728.07 0.00 201.91 -18.02062 -17.17295 0.00000
2245.22 10.00000 10.00000 1402.97388 801.67 0.00 201.91 -23.39562 -19.22862 0.00000
2248.29 10.00000 10.00000 1426.50476 873.79 0.00 201.91 -23.39562 -19.71885 0.00000
2249.88 10.00000 10.00000 1447.26746 940.04 0.00 201.91 -23.39562 -20.15141 0.00000
2252.84 10.00000 10.00000 1465.58752 1000.79 0.00 201.91 -23.39562 -20.53307 0.00000
2255.21 10.00000 10.00000 1596.10437 1063.15 0.00 201.91 -23.89562 -23.25217 0.00000
2258.28 10.00000 10.00000 1599.73755 1126.06 0.00 201.91 -23.89562 -23.32787 0.00000
2259.84 10.00000 10.00000 1602.94336 1181.98 0.00 201.91 -23.89562 -23.39465 0.00000
2262.84 10.00000 10.00000 1605.77197 1231.67 0.00 201.91 -23.89562 -23.45358 0.00000
2265.23 10.00000 10.00000 2022.79688 1300.21 0.00 201.91 -25.70812 -32.14160 0.00000
2268.28 10.00000 10.00000 1986.46619 1383.09 0.00 201.91 -25.70812 -31.38471 0.00000
2269.86 10.00000 10.00000 1954.40955 1452.19 0.00 201.91 -25.70812 -30.71687 0.00000
2272.84 10.00000 10.00000 1926.12415 1509.61 0.00 201.91 -25.70812 -30.12759 0.00000
2275.22 10.00000 10.00000 2215.63721 1575.64 0.00 201.91 -27.08312 -36.15911 0.00000
2278.28 10.00000 10.00000 2164.38428 1647.92 0.00 201.91 -27.08312 -35.09134 0.00000
2279.84 10.00000 10.00000 2119.16162 1706.02 0.00 201.91 -27.08312 -34.14920 0.00000
2282.83 10.00000 10.00000 2079.25928 1752.28 0.00 201.91 -27.08312 -33.31790 0.00000
2285.22 10.00000 10.00000 2215.57983 1798.76 0.00 201.91 -27.83312 -36.15791 0.00000
2288.31 10.00000 10.00000 2168.56860 1845.04 0.00 201.91 -27.83312 -35.17851 0.00000
2289.86 10.00000 10.00000 2127.08789 1880.66 0.00 201.91 -27.83312 -34.31433 0.00000
2292.84 10.00000 10.00000 2090.48730 1907.50 0.00 201.91 -27.83312 -33.55182 0.00000
2295.22 10.00000 10.00000 1886.66382 1917.04 0.00 201.91 -27.08312 -29.30550 0.00000
2298.31 10.00000 10.00000 1874.11377 1912.72 0.00 201.91 -27.08312 -29.04404 0.00000
2299.86 10.00000 10.00000 1863.04028 1907.53 0.00 201.91 -27.08312 -28.81334 0.00000
2302.84 10.00000 10.00000 1853.26978 1901.72 0.00 201.91 -27.08312 -28.60979 0.00000
2305.22 10.00000 10.00000 2330.64844 1924.10 0.00 201.91 -29.20812 -38.55518 0.00000
2308.31 10.00000 10.00000 2277.86499 1968.83 0.00 201.91 -29.20812 -37.45552 0.00000
2309.86 10.00000 10.00000 2231.29102 2002.44 0.00 201.91 -29.20812 -36.48523 0.00000
2312.84 10.00000 10.00000 2190.19629 2026.95 0.00 201.91 -29.20812 -35.62909 0.00000
2315.24 10.00000 10.00000 2503.16821 2064.56 0.00 201.91 -25.77062 -42.14934 0.00000
2318.29 10.00000 10.00000 2410.67627 2110.72 0.00 201.91 -25.77062 -40.22242 0.00000
2319.85 10.00000 10.00000 2329.06543 2141.21 0.00 201.91 -25.77062 -38.52219 0.00000
2322.84 10.00000 10.00000 2257.05566 2159.08 0.00 201.91 -25.77062 -37.02200 0.00000
2325.22 10.00000 10.00000 2293.57715 2172.75 0.00 201.91 -26.20812 -37.78286 0.00000
2328.31 10.00000 10.00000 2228.21411 2183.12 0.00 201.91 -26.20812 -36.42113 0.00000
2329.85 10.00000 10.00000 2170.54028 2185.03 0.00 201.91 -26.20812 -35.21959 0.00000
2332.84 10.00000 10.00000 2119.65161 2180.33 0.00 201.91 -26.20812 -34.15941 0.00000
2335.21 10.00000 10.00000 1745.98535 2151.22 0.00 201.91 -24.77062 -26.37469 0.00000
2338.32 10.00000 10.00000 1736.92676 2103.01 0.00 201.91 -24.77062 -26.18597 0.00000
2339.85 10.00000 10.00000 1728.93384 2059.47 0.00 201.91 -24.77062 -26.01945 0.00000
2342.83 10.00000 10.00000 1721.88135 2020.17 0.00 201.91 -24.77062 -25.87253 0.00000
2345.21 10.00000 10.00000 1186.77612 1953.60 0.00 201.91 -22.45812 -14.72450 0.00000
2348.29 10.00000 10.00000 1230.44788 1865.95 0.00 201.91 -22.45812 -15.63433 0.00000
2349.85 10.00000 10.00000 1268.98169 1793.45 0.00 201.91 -22.45812 -16.43712 0.00000
2352.84 10.00000 10.00000 1302.98218 1733.75 0.00 201.91 -22.45812 -17.14546 0.00000
2355.22 10.00000 10.00000 832.68860 1655.41 0.00 201.91 -20.27062 -7.34768 0.00000
2358.28 10.00000 10.00000 905.66492 1562.91 0.00 201.91 -20.27062 -8.86802 0.00000
2359.85 10.00000 10.00000 970.05579 1489.38 0.00 201.91 -20.27062 -10.20950 0.00000
2362.84 10.00000 10.00000 1026.87122 1431.62 0.00 201.91 -20.27062 -11.39315 0.00000
2365.23 10.00000 10.00000 433.76733 1349.11 0.00 201.91 -17.45812 0.96318 0.00000
2368.28 10.00000 10.00000 537.79321 1247.55 0.00 201.91 -17.45812 -1.20403 0.00000
2369.84 10.00000 10.00000 629.58105 1169.44 0.00 201.91 -17.45812 -3.11627 0.00000
2372.84 10.00000 10.00000 710.57007 1110.70 0.00 201.91 -17.45812 -4.80354 0.00000
2375.22 10.00000 10.00000 1074.08679 1085.00 0.00 201.91 -13.77063 -12.37681 0.00000
2378.28 10.00000 10.00000 1081.95752 1084.18 0.00 201.91 -13.77063 -12.54078 0.00000
2379.85 10.00000 10.00000 1088.90234 1084.33 0.00 201.91 -13.77063 -12.68547 0.00000
2382.83 10.00000 10.00000 1095.02979 1085.23 0.00 201.91 -13.77063 -12.81312 0.00000
2385.22 10.00000 10.00000 886.02484 1074.09 0.00 201.91 -12.83313 -8.45885 0.00000
2388.29 10.00000 10.00000 910.72650 1053.41 0.00 201.91 -12.83313 -8.97347 0.00000
2389.86 10.00000 10.00000 932.52191 1037.91 0.00 201.91 -12.83313 -9.42754 0.00000
2392.84 10.00000 10.00000 951.75311 1026.64 0.00 201.91 -12.83313 -9.82819 0.00000
2395.23 10.00000 10.00000 974.89539 1019.19 0.00 201.91 -7.89563 -10.31032 0.00000
2398.31 10.00000 10.00000 961.25922 1013.18 0.00 201.91 -7.89563 -10.02623 0.00000
2399.84 10.00000 10.00000 949.22736 1006.36 0.00 201.91 -7.89563 -9.77557 0.00000
2402.84 10.00000 10.00000 938.61108 999.02 0.00 201.91 -7.89563 -9.55440 0.00000
2405.22 10.00000 10.00000 1292.77002 1012.74 0.00 201.91 -4.52063 -16.93271 0.00000
2408.30 10.00000 10.00000 1222.67810 1041.56 0.00 201.91 -4.52063 -15.47246 0.00000
2409.84 10.00000 10.00000 1160.83215 1059.23 0.00 201.91 -4.52063 -14.18400 0.00000
2412.84 10.00000 10.00000 1106.26233 1067.98 0.00 201.91 -4.52063 -13.04713 0.00000
2415.22 10.00000 10.00000 572.11255 1041.06 0.00 201.91 -2.39563 -1.91901 0.00000
2418.29 10.00000 10.00000 574.80402 986.05 0.00 201.91 -2.39563 -1.97508 0.00000
2419.85 10.00000 10.00000 577.17877 937.81 0.00 201.91 -2.39563 -2.02456 0.00000
2422.83 10.00000 10.00000 579.27417 895.50 0.00 201.91 -2.39563 -2.06821 0.00000
2425.24 6.42141 6.42141 329.75925 843.62 0.00 201.91 2.91687 -0.44858 0.00000
2428.29 6.34676 6.34676 307.17130 781.84 0.00 201.91 2.91687 -0.05264 0.00000
2429.85 6.27219 6.27219 286.82327 724.80 0.00 201.91 2.91687 0.29671 0.00000
2432.84 6.31762 6.31762 274.20752 672.53 0.00 201.91 2.91687 0.60496 0.00000
2434.96 6.36311 6.36311 263.33542 625.03 0.00 201.91 2.91687 0.87695 0.00000
2438.65 2.82662 2.82662 -475.40616 539.02 0.00 201.91 5.35437 12.73091 0.00000
2439.85 2.72733 2.72733 -438.51617 421.85 0.00 201.91 5.35437 11.86308 0.00000
2442.84 2.74280 2.74280 -401.01865 322.83 0.00 201.91 5.35437 11.09735 0.00000
2444.86 2.75868 2.75868 -367.82532 239.63 0.00 161.28 5.35437 10.42170 0.00000
2448.66 -2.69742 -2.69742 -337.63489 169.94 0.00 114.37 9.16687 4.33664 0.00000
2449.84 -2.77696 -2.77696 -368.72961 108.39 0.00 72.95 9.16687 4.90490 0.00000
2452.84 -2.82770 -2.82770 -395.23233 50.70 0.00 34.12 9.16687 5.40631 0.00000
2454.85 -2.87826 -2.87826 -418.89545 -3.15 0.00 -2.12 9.16687 5.84872 0.00000
2458.66 -8.27352 -8.27352 -433.13776 -52.90 0.00 -35.60 12.97937 0.75018 0.00000
2459.85 -8.29314 -8.29314 -503.13794 -101.75 0.00 -68.48 12.97937 2.18890 0.00000
2462.84 -8.34049 -8.34049 -566.34473 -152.69 0.00 -102.77 12.97937 3.45836 0.00000
2464.87 -8.38767 -8.38767 -622.37463 -204.65 0.00 -137.74 12.97937 4.57847 0.00000
2468.66 -10.00000 -10.00000 -455.15149 -243.96 0.00 -164.19 16.66688 -0.51768 0.00000
2469.85 -10.00000 -10.00000 -552.19336 -274.51 0.00 -184.76 16.66688 1.50403 0.00000
2472.84 -10.00000 -10.00000 -637.81860 -312.22 0.00 -201.91 16.66688 3.28789 0.00000
2474.85 -10.00000 -10.00000 -713.37012 -354.97 0.00 -201.91 16.66688 4.86188 0.00000
2478.66 -10.00000 -10.00000 -673.80103 -394.81 0.00 -201.91 21.16688 4.03752 0.00000
2479.85 -10.00000 -10.00000 -770.53088 -433.32 0.00 -201.91 21.16688 6.05273 0.00000
2482.84 -10.00000 -10.00000 -855.88110 -478.01 0.00 -201.91 21.16688 7.83086 0.00000
2484.85 -10.00000 -10.00000 -931.18982 -526.90 0.00 -201.91 21.16688 9.39979 0.00000
2488.65 -10.00000 -10.00000 -1540.81531 -610.32 0.00 -201.91 23.54188 22.10032 0.00000
2489.85 -10.00000 -10.00000 -1548.95581 -720.27 0.00 -201.91 23.54188 22.26991 0.00000
2492.84 -10.00000 -10.00000 -1556.13867 -818.18 0.00 -201.91 23.54188 22.41956 0.00000
2494.86 -10.00000 -10.00000 -1562.47632 -905.38 0.00 -201.91 23.54188 22.55159 0.00000
2498.66 -10.00000 -10.00000 -2168.42139 -1018.33 0.00 -201.91 26.16688 35.17545 0.00000
2499.85 -10.00000 -10.00000 -2117.54883 -1150.64 0.00 -201.91 26.16688 34.11560 0.00000
2502.84 -10.00000 -10.00000 -2072.66162 -1261.75 0.00 -201.91 26.16688 33.18045 0.00000
2504.85 -10.00000 -10.00000 -2033.05518 -1354.82 0.00 -201.91 26.16688 32.35532 0.00000
2508.66 -10.00000 -10.00000 -2598.46143 -1467.87 0.00 -201.91 28.79188 44.13461 0.00000
2509.85 -10.00000 -10.00000 -2511.81958 -1595.79 0.00 -201.91 28.79188 42.32957 0.00000
2512.84 -10.00000 -10.00000 -2435.37085 -1699.06 0.00 -201.91 28.79188 40.73689 0.00000
2514.86 -10.00000 -10.00000 -2367.91553 -1781.72 0.00 -201.91 28.79188 39.33157 0.00000
2518.66 -10.00000 -10.00000 -2308.39673 -1847.18 0.00 -201.91 28.79188 38.09160 0.00000
2519.84 -10.00000 -10.00000 -2255.87988 -1898.35 0.00 -201.91 28.79188 36.99750 0.00000
2522.84 -10.00000 -10.00000 -2209.54175 -1937.69 0.00 -201.91 28.79188 36.03212 0.00000
2524.87 -10.00000 -10.00000 -2168.65503 -1967.27 0.00 -201.91 28.79188 35.18031 0.00000
2528.66 -10.00000 -10.00000 -2690.04932 -2021.63 0.00 -201.91 31.22938 46.04269 0.00000
2529.85 -10.00000 -10.00000 -2606.39648 -2095.34 0.00 -201.91 31.22938 44.29993 0.00000
2532.84 -10.00000 -10.00000 -2532.58521 -2151.13 0.00 -201.91 31.22938 42.76219 0.00000
2534.86 -10.00000 -10.00000 -2467.45752 -2192.17 0.00 -201.91 31.22938 41.40536 0.00000
2538.65 -10.00000 -10.00000 -2124.10986 -2204.36 0.00 -201.91 29.97938 34.25229 0.00000
2539.84 -10.00000 -10.00000 -2099.97949 -2193.50 0.00 -201.91 29.97938 33.74957 0.00000
2542.84 -10.00000 -10.00000 -2078.68799 -2181.25 0.00 -201.91 29.97938 33.30600 0.00000
2544.85 -10.00000 -10.00000 -2059.90137 -2168.08 0.00 -201.91 29.97938 32.91461 0.00000
2548.65 -10.00000 -10.00000 -2043.32446 -2154.37 0.00 -201.91 29.97938 32.56926 0.00000
2549.85 -10.00000 -10.00000 -2028.69800 -2140.45 0.00 -201.91 29.97938 32.26454 0.00000
2552.84 -10.00000 -10.00000 -2015.79272 -2126.54 0.00 -201.91 29.97938 31.99568 0.00000
2554.84 -10.00000 -10.00000 -2004.40503 -2112.84 0.00 -201.91 29.97938 31.75844 0.00000
2558.65 -10.00000 -10.00000 -1722.76978 -2083.52 0.00 -201.91 28.79188 25.89104 0.00000
2559.85 -10.00000 -10.00000 -1739.15039 -2042.04 0.00 -201.91 28.79188 26.23230 0.00000
2562.84 -10.00000 -10.00000 -1753.60400 -2007.26 0.00 -201.91 28.79188 26.53342 0.00000
2564.85 -10.00000 -10.00000 -1766.35693 -1978.17 0.00 -201.91 28.79188 26.79910 0.00000
2568.65 -10.00000 -10.00000 -1477.43335 -1936.25 0.00 -201.91 27.47938 20.77986 0.00000
2569.85 -10.00000 -10.00000 -1515.26550 -1884.50 0.00 -201.91 27.47938 21.56803 0.00000
2572.84 -10.00000 -10.00000 -1548.64636 -1843.02 0.00 -201.91 27.47938 22.26347 0.00000
2574.85 -10.00000 -10.00000 -1578.10071 -1810.12 0.00 -201.91 27.47938 22.87710 0.00000
2578.65 -10.00000 -10.00000 -1432.55969 -1774.26 0.00 -201.91 26.72938 19.84499 0.00000
2579.85 -10.00000 -10.00000 -1471.43555 -1736.35 0.00 -201.91 26.72938 20.65491 0.00000
2582.84 -10.00000 -10.00000 -1505.73779 -1707.20 0.00 -201.91 26.72938 21.36954 0.00000
2584.85 -10.00000 -10.00000 -1536.00439 -1685.28 0.00 -201.91 26.72938 22.00009 0.00000
2588.65 -10.00000 -10.00000 -1869.06042 -1687.31 0.00 -201.91 23.10438 28.93876 0.00000
2589.85 -10.00000 -10.00000 -1836.11316 -1706.75 0.00 -201.91 23.10438 28.25236 0.00000
2592.84 -10.00000 -10.00000 -1807.04187 -1720.26 0.00 -201.91 23.10438 27.64671 0.00000
2594.88 -10.00000 -10.00000 -1781.39099 -1728.96 0.00 -201.91 23.10438 27.11231 0.00000
2598.66 -10.00000 -10.00000 -1215.58118 -1701.85 0.00 -201.91 20.72938 15.32461 0.00000
2599.85 -10.00000 -10.00000 -1246.10156 -1646.44 0.00 -201.91 20.72938 15.96045 0.00000
2602.83 -10.00000 -10.00000 -1273.03125 -1600.92 0.00 -201.91 20.72938 16.52148 0.00000
2604.85 -10.00000 -10.00000 -1296.79285 -1563.74 0.00 -201.91 20.72938 17.01652 0.00000
2608.66 -10.00000 -10.00000 -631.64136 -1493.21 0.00 -201.91 17.72938 3.15919 0.00000
2609.85 -10.00000 -10.00000 -713.91943 -1396.69 0.00 -201.91 17.72938 4.87332 0.00000
2612.83 -10.00000 -10.00000 -786.51782 -1320.63 0.00 -201.91 17.72938 6.38579 0.00000
2614.84 -10.00000 -10.00000 -850.57544 -1261.56 0.00 -201.91 17.72938 7.72032 0.00000
2618.65 -10.00000 -10.00000 -235.27295 -1177.02 0.00 -201.91 14.79187 -5.09848 0.00000
2619.85 -10.00000 -10.00000 -347.59460 -1072.83 0.00 -201.91 14.79187 -2.75845 0.00000
2622.84 -10.00000 -10.00000 -446.70190 -993.34 0.00 -201.91 14.79187 -0.69371 0.00000
2624.87 -10.00000 -10.00000 -534.14941 -934.17 0.00 -201.91 14.79187 1.12811 0.00000
2628.66 -10.00000 -10.00000 -889.07080 -907.99 0.00 -201.91 11.04187 8.52231 0.00000
2629.85 -10.00000 -10.00000 -903.29865 -906.60 0.00 -201.91 11.04187 8.81872 0.00000
2632.84 -10.00000 -10.00000 -915.85254 -906.95 0.00 -201.91 11.04187 9.08026 0.00000
2634.88 -10.00000 -10.00000 -926.92950 -908.65 0.00 -201.91 11.04187 9.31103 0.00000
2638.66 -10.00000 -10.00000 -307.76221 -874.38 0.00 -201.91 8.29187 -3.58829 0.00000
2639.85 -10.00000 -10.00000 -374.85004 -811.66 0.00 -201.91 8.29187 -2.19062 0.00000
2642.84 -10.00000 -10.00000 -434.04510 -763.76 0.00 -201.91 8.29187 -0.95739 0.00000
2644.87 -10.00000 -10.00000 -486.27594 -728.04 0.00 -201.91 8.29187 0.13075 0.00000
2648.66 -10.00000 -10.00000 -724.35895 -713.60 0.00 -201.91 4.16687 5.09081 0.00000
2649.85 -10.00000 -10.00000 -719.14124 -714.56 0.00 -201.91 4.16687 4.98211 0.00000
2652.84 -10.00000 -10.00000 -714.53741 -714.83 0.00 -201.91 4.16687 4.88620 0.00000
2654.85 -10.00000 -10.00000 -710.47522 -714.55 0.00 -201.91 4.16687 4.80157 0.00000
2658.66 -10.00000 -10.00000 -63.65570 -676.03 0.00 -201.91 1.35438 -8.67384 0.00000
2659.85 -10.00000 -10.00000 -120.28562 -607.31 0.00 -201.91 1.35438 -7.49405 0.00000
2662.84 -10.00000 -10.00000 -170.25320 -552.96 0.00 -201.91 1.35438 -6.45306 0.00000
2664.85 -10.00000 -10.00000 -214.34225 -510.53 0.00 -201.91 1.35438 -5.53454 0.00000
2668.66 -7.46454 -7.46454 -294.95074 -480.42 0.00 -201.91 -2.89563 -1.31973 0.00000
2669.85 -7.36634 -7.36634 -281.33813 -457.80 0.00 -201.91 -2.89563 -1.50513 0.00000
2672.84 -7.33296 -7.33296 -271.88351 -436.48 0.00 -201.91 -2.89563 -1.66872 0.00000
2674.87 -7.29976 -7.29976 -263.36157 -416.62 0.00 -201.91 -2.89563 -1.81306 0.00000
2678.66 -2.21833 -2.21833 -333.98407 -402.74 0.00 -201.91 -6.45813 4.73967 0.00000
2679.85 -2.16023 -2.16023 -267.96039 -390.77 0.00 -201.91 -6.45813 3.42228 0.00000
2682.83 -2.19393 -2.19393 -213.78319 -373.13 0.00 -201.91 -6.45813 2.25988 0.00000
2684.85 -2.22773 -2.22773 -166.17429 -351.59 0.00 -201.91 -6.45813 1.23424 0.00000
2688.66 2.72318 2.72318 -234.32349 -333.78 0.00 -201.91 -9.89563 7.60492 0.00000
2689.85 2.82700 2.82700 -130.51385 -315.97 0.00 -201.91 -9.89563 5.54604 0.00000
2692.84 3.00856 3.00856 -34.59904 -288.51 0.00 -194.18 -9.89563 3.72937 0.00000
2694.85 3.18981 3.18981 51.04183 -253.60 0.00 -170.68 -9.89563 2.12643 0.00000
2698.66 9.31518 9.31518 263.83435 -205.25 0.00 -138.14 -14.20813 3.81863 0.00000
2699.85 9.35980 9.35980 367.77423 -143.95 0.00 -96.88 -14.20813 1.69784 0.00000
2702.84 9.65937 9.65937 471.97510 -77.61 0.00 -52.24 -14.20813 -0.17345 0.00000
2704.86 9.95888 9.95888 565.60608 -7.45 0.00 -5.01 -14.20813 -1.82458 0.00000
2708.66 10.00000 10.00000 316.86584 45.34 0.00 30.51 -17.77062 3.39863 0.00000
2709.85 10.00000 10.00000 436.40955 84.31 0.00 56.75 -17.77062 0.90813 0.00000
2712.84 10.00000 10.00000 541.88928 131.94 0.00 88.80 -17.77062 -1.28936 0.00000
2714.85 10.00000 10.00000 634.95959 185.65 0.00 124.95 -17.77062 -3.22832 0.00000
2718.66 10.00000 10.00000 1217.37451 272.77 0.00 183.58 -19.95812 -15.36197 0.00000
2719.85 10.00000 10.00000 1243.32898 385.42 0.00 201.91 -19.95812 -15.90269 0.00000
2722.84 10.00000 10.00000 1266.22998 487.70 0.00 201.91 -19.95812 -16.37979 0.00000
2724.85 10.00000 10.00000 1286.43677 580.48 0.00 201.91 -19.95812 -16.80077 0.00000
2728.66 10.00000 10.00000 1441.03345 672.63 0.00 201.91 -25.52062 -20.02153 0.00000
2729.85 10.00000 10.00000 1472.08630 764.86 0.00 201.91 -25.52062 -20.66846 0.00000
2732.84 10.00000 10.00000 1499.48621 849.67 0.00 201.91 -25.52062 -21.23930 0.00000
2734.85 10.00000 10.00000 1523.66199 927.54 0.00 201.91 -25.52062 -21.74296 0.00000
2738.65 10.00000 10.00000 1859.46497 1017.43 0.00 201.91 -26.89562 -28.73885 0.00000
2739.84 10.00000 10.00000 1849.05542 1115.88 0.00 201.91 -26.89562 -28.52199 0.00000
2742.84 10.00000 10.00000 1839.87085 1201.59 0.00 201.91 -26.89562 -28.33064 0.00000
2744.85 10.00000 10.00000 1831.76660 1276.21 0.00 201.91 -26.89562 -28.16180 0.00000
2748.65 10.00000 10.00000 2453.55688 1378.14 0.00 201.91 -29.64562 -41.11577 0.00000
2749.84 10.00000 10.00000 2388.78296 1500.85 0.00 201.91 -29.64562 -39.76631 0.00000
2752.84 10.00000 10.00000 2331.62988 1601.95 0.00 201.91 -29.64562 -38.57562 0.00000
2754.85 10.00000 10.00000 2281.20044 1684.83 0.00 201.91 -29.64562 -37.52501 0.00000
2758.65 10.00000 10.00000 2908.52856 1791.89 0.00 201.91 -32.58313 -50.59435 0.00000
2759.85 10.00000 10.00000 2806.81787 1917.28 0.00 201.91 -32.58313 -48.47537 0.00000
2762.84 10.00000 10.00000 2717.07275 2016.65 0.00 201.91 -32.58313 -46.60568 0.00000
2764.85 10.00000 10.00000 2637.88623 2094.40 0.00 201.91 -32.58313 -44.95596 0.00000
2768.66 10.00000 10.00000 2339.30859 2140.77 0.00 201.91 -31.58312 -38.73560 0.00000
2769.85 10.00000 10.00000 2298.91699 2161.75 0.00 201.91 -31.58312 -37.89410 0.00000
2772.83 10.00000 10.00000 2263.27734 2175.79 0.00 201.91 -31.58312 -37.15161 0.00000
2774.85 10.00000 10.00000 2231.83008 2184.24 0.00 201.91 -31.58312 -36.49646 0.00000
2778.66 10.00000 10.00000 2632.90723 2213.43 0.00 201.91 -33.45813 -44.85223 0.00000
2779.84 10.00000 10.00000 2568.56323 2258.99 0.00 201.91 -33.45813 -43.51173 0.00000
2782.84 10.00000 10.00000 2511.78882 2292.07 0.00 201.91 -33.45813 -42.32893 0.00000
2784.86 10.00000 10.00000 2461.69409 2314.98 0.00 201.91 -33.45813 -41.28529 0.00000
2788.66 10.00000 10.00000 2531.84546 2336.36 0.00 201.91 -33.95813 -42.74678 0.00000
2789.85 10.00000 10.00000 2482.21436 2356.44 0.00 201.91 -33.95813 -41.71280 0.00000
2792.84 10.00000 10.00000 2438.42212 2368.66 0.00 201.91 -33.95813 -40.80046 0.00000
2794.85 10.00000 10.00000 2399.78174 2374.60 0.00 201.91 -33.95813 -39.99545 0.00000
2798.65 10.00000 10.00000 2379.98145 2376.39 0.00 201.91 -34.02063 -39.58295 0.00000
2799.84 10.00000 10.00000 2348.57007 2374.97 0.00 201.91 -34.02063 -38.92854 0.00000
2802.84 10.00000 10.00000 2320.85376 2370.23 0.00 201.91 -34.02063 -38.35112 0.00000
2804.85 10.00000 10.00000 2296.39819 2362.98 0.00 201.91 -34.02063 -37.84163 0.00000
2808.65 10.00000 10.00000 1946.05518 2334.54 0.00 201.91 -32.58313 -30.54282 0.00000
2809.84 10.00000 10.00000 1957.57617 2289.52 0.00 201.91 -32.58313 -30.78284 0.00000
2812.84 10.00000 10.00000 1967.74219 2251.06 0.00 201.91 -32.58313 -30.99463 0.00000
2814.84 10.00000 10.00000 1976.71216 2218.26 0.00 201.91 -32.58313 -31.18150 0.00000
2818.65 10.00000 10.00000 1855.97974 2182.74 0.00 201.91 -32.02063 -28.66624 0.00000
2819.84 10.00000 10.00000 1874.92163 2145.41 0.00 201.91 -32.02063 -29.06087 0.00000
2822.84 10.00000 10.00000 1891.63477 2114.57 0.00 201.91 -32.02063 -29.40906 0.00000
2824.84 10.00000 10.00000 1906.38208 2089.21 0.00 201.91 -32.02063 -29.71629 0.00000
2828.66 10.00000 10.00000 1676.39355 2054.17 0.00 201.91 -30.95812 -24.92487 0.00000
2829.85 10.00000 10.00000 1710.46289 2011.73 0.00 201.91 -30.95812 -25.63464 0.00000
2832.84 10.00000 10.00000 1740.52441 1978.06 0.00 201.91 -30.95812 -26.26093 0.00000
2834.85 10.00000 10.00000 1767.04907 1951.67 0.00 201.91 -30.95812 -26.81352 0.00000
2838.66 10.00000 10.00000 1190.10059 1896.01 0.00 201.91 -28.33312 -14.79376 0.00000
2839.85 10.00000 10.00000 1266.55737 1817.46 0.00 201.91 -28.33312 -16.38661 0.00000
2842.84 10.00000 10.00000 1334.01929 1756.62 0.00 201.91 -28.33312 -17.79207 0.00000
2844.85 10.00000 10.00000 1393.54468 1710.40 0.00 201.91 -28.33312 -19.03218 0.00000
2848.66 10.00000 10.00000 1031.53784 1651.83 0.00 201.91 -26.52062 -11.49037 0.00000
2849.85 10.00000 10.00000 1116.41382 1583.85 0.00 201.91 -26.52062 -13.25862 0.00000
2852.84 10.00000 10.00000 1191.30469 1533.26 0.00 201.91 -26.52062 -14.81885 0.00000
2854.84 10.00000 10.00000 1257.38452 1496.92 0.00 201.91 -26.52062 -16.19551 0.00000
2858.66 10.00000 10.00000 729.63208 1437.69 0.00 201.91 -23.95812 -5.20067 0.00000
2859.85 10.00000 10.00000 835.55603 1360.62 0.00 201.91 -23.95812 -7.40742 0.00000
2862.84 10.00000 10.00000 929.01855 1304.35 0.00 201.91 -23.95812 -9.35455 0.00000
2864.85 10.00000 10.00000 1011.48523 1265.04 0.00 201.91 -23.95812 -11.07261 0.00000
2868.66 10.00000 10.00000 1076.12915 1239.01 0.00 201.91 -18.95812 -12.41936 0.00000
2869.85 10.00000 10.00000 1113.05347 1222.02 0.00 201.91 -18.95812 -13.18861 0.00000
2872.84 10.00000 10.00000 1145.63379 1211.12 0.00 201.91 -18.95812 -13.86737 0.00000
2874.86 10.00000 10.00000 1174.38135 1205.11 0.00 201.91 -18.95812 -14.46628 0.00000
2878.66 10.00000 10.00000 513.62915 1162.62 0.00 201.91 -15.95813 -0.70061 0.00000
2879.85 10.00000 10.00000 599.78870 1091.34 0.00 201.91 -15.95813 -2.49560 0.00000
2882.84 10.00000 10.00000 675.81189 1037.98 0.00 201.91 -15.95813 -4.07941 0.00000
2884.85 10.00000 10.00000 742.89111 999.32 0.00 201.91 -15.95813 -5.47690 0.00000
2888.66 10.00000 10.00000 1208.48755 996.54 0.00 201.91 -12.77063 -15.17682 0.00000
2889.85 10.00000 10.00000 1194.89941 1020.68 0.00 201.91 -12.77063 -14.89374 0.00000
2892.84 10.00000 10.00000 1182.91003 1040.47 0.00 201.91 -12.77063 -14.64396 0.00000
2894.84 10.00000 10.00000 1172.33093 1056.60 0.00 201.91 -12.77063 -14.42356 0.00000
2898.66 10.00000 10.00000 1212.05237 1072.55 0.00 201.91 -8.02063 -15.25109 0.00000
2899.85 10.00000 10.00000 1171.22144 1086.56 0.00 201.91 -8.02063 -14.40045 0.00000
2902.84 10.00000 10.00000 1135.19421 1094.40 0.00 201.91 -8.02063 -13.64988 0.00000
2904.86 10.00000 10.00000 1103.40552 1097.33 0.00 201.91 -8.02063 -12.98761 0.00000
2908.66 10.00000 10.00000 1353.11792 1112.74 0.00 201.91 -4.27063 -18.18996 0.00000
2909.84 10.00000 10.00000 1274.51453 1136.39 0.00 201.91 -4.27063 -16.55239 0.00000
2912.84 10.00000 10.00000 1205.15857 1148.56 0.00 201.91 -4.27063 -15.10747 0.00000
2914.85 10.00000 10.00000 1143.96216 1151.62 0.00 201.91 -4.27063 -13.83254 0.00000
2918.65 10.00000 10.00000 1253.37390 1157.16 0.00 201.91 -0.02062 -16.11196 0.00000
2919.85 10.00000 10.00000 1162.50513 1163.13 0.00 201.91 -0.02062 -14.21886 0.00000
2922.84 10.00000 10.00000 1082.32690 1158.34 0.00 201.91 -0.02062 -12.54848 0.00000
2924.87 10.00000 10.00000 1011.58136 1145.24 0.00 201.91 -0.02062 -11.07461 0.00000
2928.66 10.00000 10.00000 1212.62646 1141.34 0.00 201.91 3.79187 -15.26305 0.00000
2929.85 10.00000 10.00000 1105.02222 1143.40 0.00 201.91 3.79187 -13.02130 0.00000
2932.84 10.00000 10.00000 1010.07733 1133.30 0.00 201.91 3.79187 -11.04328 0.00000
2934.86 10.00000 10.00000 926.30255 1113.87 0.00 201.91 3.79187 -9.29797 0.00000
2938.65 5.78971 5.78971 756.52136 1081.82 0.00 201.91 8.29187 -9.97116 0.00000
2939.85 5.79353 5.79353 653.57275 1037.49 0.00 201.91 8.29187 -7.82257 0.00000
2942.84 5.70868 5.70868 558.50110 986.73 0.00 201.91 8.29187 -5.92676 0.00000
2944.86 5.62534 5.62534 474.20737 931.39 0.00 201.91 8.29187 -4.25398 0.00000
2948.66 1.17686 1.17686 -524.87231 818.84 0.00 201.91 11.41687 12.11170 0.00000
2949.85 1.13488 1.13488 -522.96375 660.87 0.00 201.91 11.41687 12.02996 0.00000
2952.84 1.11348 1.11348 -520.52856 521.74 0.00 201.91 11.41687 11.95783 0.00000
2954.85 1.09225 1.09225 -518.49268 399.24 0.00 201.91 11.41687 11.89418 0.00000
2958.66 -4.56719 -4.56719 -552.57141 289.26 0.00 194.68 15.35437 6.94472 0.00000
2959.85 -4.67392 -4.67392 -605.18445 187.13 0.00 125.94 15.35437 7.93409 0.00000
2962.84 -4.95700 -4.95700 -660.67499 90.65 0.00 61.01 15.35437 8.80706 0.00000
2964.85 -5.23971 -5.23971 -711.21814 -0.71 0.00 -0.48 15.35437 9.57733 0.00000
2968.66 -10.00000 -10.00000 -1094.80884 -106.87 0.00 -71.92 20.85438 12.80852 0.00000
2969.85 -10.00000 -10.00000 -1140.24390 -225.77 0.00 -151.95 20.85438 13.75508 0.00000
2972.84 -10.00000 -10.00000 -1180.33337 -335.71 0.00 -201.91 20.85438 14.59028 0.00000
2974.85 -10.00000 -10.00000 -1215.70642 -437.16 0.00 -201.91 20.85438 15.32722 0.00000
2978.65 -10.00000 -10.00000 -1804.38904 -563.38 0.00 -201.91 23.29188 27.59144 0.00000
2979.84 -10.00000 -10.00000 -1780.10889 -707.95 0.00 -201.91 23.29188 27.08560 0.00000
2982.83 -10.00000 -10.00000 -1758.68481 -832.83 0.00 -201.91 23.29188 26.63927 0.00000
2984.84 -10.00000 -10.00000 -1739.78101 -940.64 0.00 -201.91 23.29188 26.24544 0.00000
2988.66 -10.00000 -10.00000 -1502.51587 -1020.70 0.00 -201.91 27.29188 21.30241 0.00000
2989.85 -10.00000 -10.00000 -1536.33801 -1079.37 0.00 -201.91 27.29188 22.00704 0.00000
2992.83 -10.00000 -10.00000 -1566.18054 -1134.89 0.00 -201.91 27.29188 22.62876 0.00000
2994.87 -10.00000 -10.00000 -1592.51257 -1187.18 0.00 -201.91 27.29188 23.17735 0.00000
2998.67 -10.00000 -10.00000 -1538.10278 -1231.67 0.00 -201.91 31.91688 22.04381 0.00000
2999.84 -10.00000 -10.00000 -1593.85620 -1271.00 0.00 -201.91 31.91688 23.20534 0.00000
3002.84 -10.00000 -10.00000 -1643.05005 -1311.87 0.00 -201.91 31.91688 24.23021 0.00000
3004.87 -10.00000 -10.00000 -1686.45630 -1353.39 0.00 -201.91 31.91688 25.13451 0.00000
3008.65 -10.00000 -10.00000 -1781.93188 -1398.19 0.00 -201.91 32.16687 27.12358 0.00000
3009.85 -10.00000 -10.00000 -1810.41138 -1445.01 0.00 -201.91 32.16687 27.71690 0.00000
3012.84 -10.00000 -10.00000 -1835.54004 -1489.48 0.00 -201.91 32.16687 28.24042 0.00000
3014.85 -10.00000 -10.00000 -1857.71265 -1531.49 0.00 -201.91 32.16687 28.70235 0.00000
3018.66 -10.00000 -10.00000 -2420.45288 -1602.98 0.00 -201.91 34.54187 40.42610 0.00000
3019.85 -10.00000 -10.00000 -2387.22363 -1697.19 0.00 -201.91 34.54187 39.73383 0.00000
3022.84 -10.00000 -10.00000 -2357.90332 -1776.65 0.00 -201.91 34.54187 39.12299 0.00000
3024.87 -10.00000 -10.00000 -2332.03271 -1843.51 0.00 -201.91 34.54187 38.58401 0.00000
3028.66 -10.00000 -10.00000 -2923.85303 -1935.80 0.00 -201.91 37.22937 50.91360 0.00000
3029.85 -10.00000 -10.00000 -2846.57666 -2047.49 0.00 -201.91 37.22937 49.30368 0.00000
3032.84 -10.00000 -10.00000 -2778.39185 -2137.49 0.00 -201.91 37.22937 47.88316 0.00000
3034.85 -10.00000 -10.00000 -2718.22852 -2209.35 0.00 -201.91 37.22937 46.62976 0.00000
3038.66 -10.00000 -10.00000 -2379.26074 -2249.28 0.00 -201.91 35.97937 39.56793 0.00000
3039.85 -10.00000 -10.00000 -2358.99463 -2263.38 0.00 -201.91 35.97937 39.14572 0.00000
3042.83 -10.00000 -10.00000 -2341.11328 -2273.58 0.00 -201.91 35.97937 38.77319 0.00000
3044.85 -10.00000 -10.00000 -2325.33545 -2280.59 0.00 -201.91 35.97937 38.44449 0.00000
3048.66 -10.00000 -10.00000 -2625.88403 -2303.54 0.00 -201.91 37.35437 44.70592 0.00000
3049.85 -10.00000 -10.00000 -2584.36816 -2339.02 0.00 -201.91 37.35437 43.84100 0.00000
3052.84 -10.00000 -10.00000 -2547.73682 -2365.73 0.00 -201.91 37.35437 43.07785 0.00000
3054.85 -10.00000 -10.00000 -2515.41504 -2385.24 0.00 -201.91 37.35437 42.40448 0.00000
3058.65 -10.00000 -10.00000 -2286.77783 -2387.10 0.00 -201.91 36.47937 37.64120 0.00000
3059.85 -10.00000 -10.00000 -2280.21606 -2374.92 0.00 -201.91 36.47937 37.50450 0.00000
3062.84 -10.00000 -10.00000 -2274.42627 -2363.43 0.00 -201.91 36.47937 37.38388 0.00000
3064.85 -10.00000 -10.00000 -2269.31763 -2352.66 0.00 -201.91 36.47937 37.27745 0.00000
3068.65 -10.00000 -10.00000 -2107.57471 -2333.34 0.00 -201.91 35.79187 33.90781 0.00000
3069.85 -10.00000 -10.00000 -2118.21387 -2307.41 0.00 -201.91 35.79187 34.12946 0.00000
3072.84 -10.00000 -10.00000 -2127.60132 -2285.70 0.00 -201.91 35.79187 34.32503 0.00000
3074.84 -10.00000 -10.00000 -2135.88428 -2267.59 0.00 -201.91 35.79187 34.49759 0.00000
3078.65 -10.00000 -10.00000 -2057.42725 -2247.48 0.00 -201.91 35.41687 32.86307 0.00000
3079.84 -10.00000 -10.00000 -2071.84790 -2225.97 0.00 -201.91 35.41687 33.16350 0.00000
3082.84 -10.00000 -10.00000 -2084.57153 -2208.58 0.00 -201.91 35.41687 33.42857 0.00000
3084.85 -10.00000 -10.00000 -2095.79883 -2194.65 0.00 -201.91 35.41687 33.66248 0.00000
3088.65 -10.00000 -10.00000 -1662.58740 -2157.54 0.00 -201.91 33.47937 24.63724 0.00000
3089.85 -10.00000 -10.00000 -1712.51880 -2102.25 0.00 -201.91 33.47937 25.67747 0.00000
3092.84 -10.00000 -10.00000 -1756.57617 -2058.99 0.00 -201.91 33.47937 26.59534 0.00000
3094.85 -10.00000 -10.00000 -1795.45020 -2025.70 0.00 -201.91 33.47937 27.40521 0.00000
3098.65 -10.00000 -10.00000 -1129.33887 -1959.43 0.00 -201.91 30.41688 13.52789 0.00000
3099.85 -10.00000 -10.00000 -1224.71118 -1867.38 0.00 -201.91 30.41688 15.51482 0.00000
3102.84 -10.00000 -10.00000 -1308.86353 -1796.72 0.00 -201.91 30.41688 17.26799 0.00000
3104.85 -10.00000 -10.00000 -1383.11572 -1743.69 0.00 -201.91 30.41688 18.81491 0.00000
3108.66 -10.00000 -10.00000 -1505.80884 -1708.49 0.00 -201.91 30.66688 21.37102 0.00000
3109.85 -10.00000 -10.00000 -1558.30298 -1687.73 0.00 -201.91 30.66688 22.46465 0.00000
3112.84 -10.00000 -10.00000 -1604.62134 -1675.23 0.00 -201.91 30.66688 23.42961 0.00000
3114.87 -10.00000 -10.00000 -1645.49048 -1669.33 0.00 -201.91 30.66688 24.28105 0.00000
3118.66 -10.00000 -10.00000 -1702.01843 -1669.85 0.00 -201.91 25.79188 25.45872 0.00000
3119.85 -10.00000 -10.00000 -1703.89893 -1673.74 0.00 -201.91 25.79188 25.49789 0.00000
3122.84 -10.00000 -10.00000 -1705.55859 -1677.39 0.00 -201.91 25.79188 25.53247 0.00000
3124.85 -10.00000 -10.00000 -1707.02271 -1680.79 0.00 -201.91 25.79188 25.56297 0.00000
3128.66 -10.00000 -10.00000 -1279.49121 -1658.73 0.00 -201.91 23.91688 16.65607 0.00000
3129.85 -10.00000 -10.00000 -1320.49255 -1616.52 0.00 -201.91 23.91688 17.51026 0.00000
3132.84 -10.00000 -10.00000 -1356.67053 -1583.82 0.00 -201.91 23.91688 18.26397 0.00000
3134.85 -10.00000 -10.00000 -1388.59241 -1558.98 0.00 -201.91 23.91688 18.92901 0.00000
3138.66 -10.00000 -10.00000 -1723.10889 -1558.61 0.00 -201.91 20.29188 25.89810 0.00000
3139.85 -10.00000 -10.00000 -1691.44958 -1576.10 0.00 -201.91 20.29188 25.23853 0.00000
3142.84 -10.00000 -10.00000 -1663.51501 -1588.03 0.00 -201.91 20.29188 24.65656 0.00000
3144.85 -10.00000 -10.00000 -1638.86682 -1595.46 0.00 -201.91 20.29188 24.14306 0.00000
3148.66 -10.00000 -10.00000 -1002.47131 -1563.13 0.00 -201.91 17.60438 10.88482 0.00000
3149.85 -10.00000 -10.00000 -1040.41663 -1499.40 0.00 -201.91 17.60438 11.67535 0.00000
3152.84 -10.00000 -10.00000 -1073.89783 -1447.37 0.00 -201.91 17.60438 12.37287 0.00000
3154.86 -10.00000 -10.00000 -1103.44006 -1405.17 0.00 -201.91 17.60438 12.98833 0.00000
3158.67 -10.00000 -10.00000 -1107.09180 -1369.89 0.00 -201.91 12.54187 13.06441 0.00000
3159.85 -10.00000 -10.00000 -1104.14087 -1338.80 0.00 -201.91 12.54187 13.00293 0.00000
3162.84 -10.00000 -10.00000 -1101.53711 -1311.04 0.00 -201.91 12.54187 12.94869 0.00000
3164.86 -10.00000 -10.00000 -1099.23950 -1286.26 0.00 -201.91 12.54187 12.90082 0.00000
3168.66 -10.00000 -10.00000 -554.03558 -1232.18 0.00 -201.91 10.16687 1.54241 0.00000
3169.85 -10.00000 -10.00000 -602.73816 -1155.27 0.00 -201.91 10.16687 2.55704 0.00000
3172.84 -10.00000 -10.00000 -645.71100 -1092.79 0.00 -201.91 10.16687 3.45231 0.00000
3174.86 -10.00000 -10.00000 -683.62830 -1042.42 0.00 -201.91 10.16687 4.24226 0.00000
3178.66 -10.00000 -10.00000 -723.25806 -1002.54 0.00 -201.91 5.22937 5.06788 0.00000
3179.84 -10.00000 -10.00000 -724.16992 -969.74 0.00 -201.91 5.22937 5.08687 0.00000
3182.84 -10.00000 -10.00000 -724.97449 -940.90 0.00 -201.91 5.22937 5.10364 0.00000
3184.87 -10.00000 -10.00000 -725.68445 -915.54 0.00 -201.91 5.22937 5.11843 0.00000
3188.65 -10.00000 -10.00000 -11.60495 -851.20 0.00 -201.91 2.10437 -9.75823 0.00000
3189.84 -10.00000 -10.00000 -78.59377 -756.36 0.00 -201.91 2.10437 -8.36263 0.00000
3192.84 -10.00000 -10.00000 -137.70154 -680.10 0.00 -201.91 2.10437 -7.13122 0.00000
3194.85 -10.00000 -10.00000 -189.85547 -619.36 0.00 -201.91 2.10437 -6.04468 0.00000
3198.66 -10.00000 -10.00000 -313.51767 -576.10 0.00 -201.91 -2.52063 -3.46838 0.00000
3199.85 -10.00000 -10.00000 -318.86975 -545.52 0.00 -201.91 -2.52063 -3.35688 0.00000
3202.84 -10.00000 -10.00000 -323.59216 -519.14 0.00 -201.91 -2.52063 -3.25850 0.00000
3204.85 -10.00000 -10.00000 -327.75906 -496.38 0.00 -201.91 -2.52063 -3.17169 0.00000
3208.66 -7.56918 -7.56918 328.42004 -437.94 0.00 -201.91 -4.89563 -14.41126 0.00000
3209.85 -7.61420 -7.61420 272.52344 -351.07 0.00 -201.91 -4.89563 -13.29177 0.00000
3212.84 -7.45808 -7.45808 232.60324 -280.05 0.00 -188.49 -4.89563 -12.30399 0.00000
3214.86 -7.30222 -7.30222 198.24916 -221.76 0.00 -149.25 -4.89563 -11.43241 0.00000
3218.66 0.18985 0.18985 571.95819 -150.37 0.00 -101.20 -10.08313 -11.72594 0.00000
3219.85 0.36055 0.36055 570.87439 -65.45 0.00 -44.05 -10.08313 -11.53267 0.00000
3222.84 0.34743 0.34743 562.05896 8.89 0.00 5.99 -10.08313 -11.36213 0.00000
3224.87 0.33430 0.33430 554.20599 73.51 0.00 49.47 -10.08313 -11.21166 0.00000
3228.66 5.56129 5.56129 463.79068 124.74 0.00 83.96 -13.58313 -4.10101 0.00000
3229.85 5.85331 5.85331 531.35352 168.61 0.00 113.48 -13.58313 -5.21655 0.00000
3232.84 5.88759 5.88759 580.24530 214.16 0.00 144.14 -13.58313 -6.20085 0.00000
3234.89 5.92178 5.92178 623.57428 259.78 0.00 174.84 -13.58313 -7.06935 0.00000
3238.67 10.00000 10.00000 1556.52393 357.46 0.00 201.91 -16.64562 -22.42758 0.00000
3239.84 10.00000 10.00000 1523.87256 496.60 0.00 201.91 -16.64562 -21.74734 0.00000
3242.84 10.00000 10.00000 1495.06274 615.76 0.00 201.91 -16.64562 -21.14714 0.00000
3244.86 10.00000 10.00000 1469.64221 717.71 0.00 201.91 -16.64562 -20.61755 0.00000
3248.66 10.00000 10.00000 1412.45068 802.81 0.00 201.91 -21.45812 -19.42606 0.00000
3249.85 10.00000 10.00000 1423.92517 875.21 0.00 201.91 -21.45812 -19.66511 0.00000
3252.84 10.00000 10.00000 1434.04980 940.36 0.00 201.91 -21.45812 -19.87604 0.00000
3254.85 10.00000 10.00000 1442.98352 998.97 0.00 201.91 -21.45812 -20.06216 0.00000
3258.65 10.00000 10.00000 1436.57227 1050.83 0.00 201.91 -21.39562 -19.92859 0.00000
3259.84 10.00000 10.00000 1444.85632 1096.70 0.00 201.91 -21.39562 -20.10117 0.00000
3262.83 10.00000 10.00000 1452.16589 1138.09 0.00 201.91 -21.39562 -20.25346 0.00000
3264.87 10.00000 10.00000 1458.61560 1175.42 0.00 201.91 -21.39562 -20.38783 0.00000
3268.65 10.00000 10.00000 1400.95679 1205.34 0.00 201.91 -26.08312 -19.18660 0.00000
3269.84 10.00000 10.00000 1439.90149 1230.65 0.00 201.91 -26.08312 -19.99795 0.00000
3272.83 10.00000 10.00000 1474.26453 1257.29 0.00 201.91 -26.08312 -20.71384 0.00000
3274.85 10.00000 10.00000 1504.58459 1284.60 0.00 201.91 -26.08312 -21.34551 0.00000
3278.40 10.00000 10.00000 1531.33777 1312.05 0.00 201.91 -26.08312 -21.90287 0.00000
3280.22 10.00000 10.00000 1512.06116 1336.72 0.00 201.91 -25.89562 -21.50127 0.00000
3282.84 10.00000 10.00000 1536.87561 1358.80 0.00 201.91 -25.89562 -22.01824 0.00000
3284.85 10.00000 10.00000 1558.77063 1381.04 0.00 201.91 -25.89562 -22.47439 0.00000
3288.29 10.00000 10.00000 1578.08972 1403.09 0.00 201.91 -25.89562 -22.87687 0.00000
3290.23 10.00000 10.00000 2023.95959 1449.90 0.00 201.91 -27.77062 -32.16582 0.00000
3292.84 10.00000 10.00000 1999.13892 1515.98 0.00 201.91 -27.77062 -31.64873 0.00000
3294.85 10.00000 10.00000 1977.23877 1571.53 0.00 201.91 -27.77062 -31.19247 0.00000
3298.28 10.00000 10.00000 1957.91455 1618.13 0.00 201.91 -27.77062 -30.78989 0.00000
3300.23 10.00000 10.00000 1897.98120 1654.58 0.00 201.91 -27.58312 -29.54128 0.00000
3302.84 10.00000 10.00000 1886.92236 1682.56 0.00 201.91 -27.58312 -29.31088 0.00000
3304.86 10.00000 10.00000 1877.16431 1706.03 0.00 201.91 -27.58312 -29.10759 0.00000
3308.29 10.00000 10.00000 1868.55469 1725.66 0.00 201.91 -27.58312 -28.92822 0.00000
3310.22 10.00000 10.00000 2175.42920 1760.52 0.00 201.91 -28.95812 -35.32144 0.00000
3312.86 10.00000 10.00000 2139.49438 1807.22 0.00 201.91 -28.95812 -34.57280 0.00000
3314.85 10.00000 10.00000 2107.78784 1844.44 0.00 201.91 -28.95812 -33.91225 0.00000
3318.29 10.00000 10.00000 2079.81079 1873.78 0.00 201.91 -28.95812 -33.32939 0.00000
3320.22 10.00000 10.00000 1526.24268 1865.46 0.00 201.91 -26.64562 -21.79672 0.00000
3322.85 10.00000 10.00000 1553.62463 1827.16 0.00 201.91 -26.64562 -22.36718 0.00000
3324.88 10.00000 10.00000 1577.78503 1796.40 0.00 201.91 -26.64562 -22.87052 0.00000
3328.29 10.00000 10.00000 1599.10291 1771.93 0.00 201.91 -26.64562 -23.31464 0.00000
3330.24 10.00000 10.00000 1760.85388 1761.12 0.00 201.91 -27.27062 -26.68446 0.00000
3332.84 10.00000 10.00000 1764.16333 1761.28 0.00 201.91 -27.27062 -26.75340 0.00000
3334.84 10.00000 10.00000 1767.08350 1761.79 0.00 201.91 -27.27062 -26.81424 0.00000
3338.29 10.00000 10.00000 1769.66016 1762.56 0.00 201.91 -27.27062 -26.86792 0.00000
3340.25 10.00000 10.00000 1457.46313 1745.03 0.00 201.91 -25.89562 -20.36382 0.00000
3342.84 10.00000 10.00000 1488.70056 1713.04 0.00 201.91 -25.89562 -21.01460 0.00000
3344.85 10.00000 10.00000 1516.26306 1688.27 0.00 201.91 -25.89562 -21.58881 0.00000
3348.28 10.00000 10.00000 1540.58313 1669.46 0.00 201.91 -25.89562 -22.09548 0.00000
3350.22 10.00000 10.00000 990.27795 1621.93 0.00 201.91 -23.39562 -10.63079 0.00000
3352.83 10.00000 10.00000 1062.36145 1551.86 0.00 201.91 -23.39562 -12.13253 0.00000
3354.86 10.00000 10.00000 1125.96423 1498.01 0.00 201.91 -23.39562 -13.45759 0.00000
3358.28 10.00000 10.00000 1182.08459 1457.54 0.00 201.91 -23.39562 -14.62676 0.00000
3360.23 10.00000 10.00000 1002.89648 1414.59 0.00 201.91 -22.39562 -10.89368 0.00000
3362.86 10.00000 10.00000 1067.84839 1369.98 0.00 201.91 -22.39562 -12.24684 0.00000
3364.84 10.00000 10.00000 1125.15894 1337.81 0.00 201.91 -22.39562 -13.44081 0.00000
3368.29 10.00000 10.00000 1175.72681 1315.76 0.00 201.91 -22.39562 -14.49431 0.00000
3370.23 10.00000 10.00000 748.63989 1274.17 0.00 201.91 -20.33312 -5.59666 0.00000
3372.83 10.00000 10.00000 831.85730 1217.23 0.00 201.91 -20.33312 -7.33036 0.00000
3374.85 10.00000 10.00000 905.28442 1176.21 0.00 201.91 -20.33312 -8.86009 0.00000
3378.28 10.00000 10.00000 970.07300 1148.15 0.00 201.91 -20.33312 -10.20985 0.00000
3380.22 10.00000 10.00000 1133.47156 1136.81 0.00 201.91 -15.83313 -13.61399 0.00000
3382.84 10.00000 10.00000 1146.00256 1137.16 0.00 201.91 -15.83313 -13.87505 0.00000
3384.85 10.00000 10.00000 1157.05920 1138.85 0.00 201.91 -15.83313 -14.10540 0.00000
3388.29 10.00000 10.00000 1166.81506 1141.56 0.00 201.91 -15.83313 -14.30865 0.00000
3390.25 10.00000 10.00000 1018.18799 1135.79 0.00 201.91 -15.14563 -11.21225 0.00000
3392.84 10.00000 10.00000 1040.39941 1123.26 0.00 201.91 -15.14563 -11.67499 0.00000
3394.85 10.00000 10.00000 1059.99792 1114.67 0.00 201.91 -15.14563 -12.08329 0.00000
3398.29 10.00000 10.00000 1077.29077 1109.25 0.00 201.91 -15.14563 -12.44356 0.00000
3400.25 10.00000 10.00000 1441.78149 1126.93 0.00 201.91 -11.70813 -20.03711 0.00000
3402.84 10.00000 10.00000 1394.74695 1161.21 0.00 201.91 -11.70813 -19.05723 0.00000
3404.87 10.00000 10.00000 1353.24573 1186.24 0.00 201.91 -11.70813 -18.19262 0.00000
3408.28 10.00000 10.00000 1316.62720 1203.73 0.00 201.91 -11.70813 -17.42973 0.00000
3410.22 10.00000 10.00000 1233.31372 1212.11 0.00 201.91 -6.52063 -15.69403 0.00000
3412.86 10.00000 10.00000 1181.51062 1211.56 0.00 201.91 -6.52063 -14.61481 0.00000
3414.85 10.00000 10.00000 1135.80225 1205.34 0.00 201.91 -6.52063 -13.66255 0.00000
3418.29 10.00000 10.00000 1095.47119 1194.78 0.00 201.91 -6.52063 -12.82232 0.00000
3420.22 10.00000 10.00000 602.47327 1154.10 0.00 201.91 -4.52063 -2.55153 0.00000
3422.83 10.00000 10.00000 613.59277 1089.86 0.00 201.91 -4.52063 -2.78318 0.00000
3424.85 10.00000 10.00000 623.40405 1034.40 0.00 201.91 -4.52063 -2.98759 0.00000
3428.29 10.00000 10.00000 632.06116 986.56 0.00 201.91 -4.52063 -3.16794 0.00000
3430.24 5.88255 5.88255 405.35312 931.52 0.00 201.91 0.60438 -2.56231 0.00000
3432.84 5.97362 5.97362 391.84198 868.82 0.00 201.91 0.60438 -2.18976 0.00000
3434.85 6.06503 6.06503 380.45102 812.04 0.00 201.91 0.60438 -1.86104 0.00000
3438.29 6.14979 6.14979 370.59708 760.68 0.00 201.91 0.60438 -1.57099 0.00000
3440.21 2.32475 2.32475 -454.23035 666.27 0.00 201.91 3.35437 11.78788 0.00000
3442.84 2.39724 2.39724 -403.12598 537.45 0.00 201.91 3.35437 10.79570 0.00000
3444.85 2.46982 2.46982 -357.62045 429.47 0.00 201.91 3.35437 9.92025 0.00000
3448.29 2.54003 2.54003 -317.17245 339.25 0.00 201.91 3.35437 9.14779 0.00000
3450.24 -2.45465 -2.45465 -203.55739 268.71 0.00 180.85 6.91687 1.78613 0.00000
3452.84 -2.47301 -2.47301 -233.41200 211.39 0.00 142.27 6.91687 2.38974 0.00000
3454.87 -2.49096 -2.49096 -259.83862 157.51 0.00 106.01 6.91687 2.92234 0.00000
3458.29 -2.45058 -2.45058 -280.45728 107.20 0.00 72.15 6.91687 3.39228 0.00000
3460.24 -9.51867 -9.51867 -647.74988 39.98 0.00 26.91 11.91687 3.97612 0.00000
3462.84 -9.62824 -9.62824 -697.85071 -43.87 0.00 -29.53 11.91687 4.91032 0.00000
3464.87 -9.73727 -9.73727 -742.65039 -123.45 0.00 -83.08 11.91687 5.73461 0.00000
3468.29 -9.86445 -9.86445 -783.66638 -198.71 0.00 -133.74 11.91687 6.46193 0.00000
3470.24 -10.00000 -10.00000 -1507.09399 -310.08 0.00 -201.91 14.91687 21.39779 0.00000
3472.83 -10.00000 -10.00000 -1470.49548 -448.75 0.00 -201.91 14.91687 20.63532 0.00000
3474.85 -10.00000 -10.00000 -1438.20264 -567.06 0.00 -201.91 14.91687 19.96255 0.00000
3478.29 -10.00000 -10.00000 -1409.70923 -667.87 0.00 -201.91 14.91687 19.36894 0.00000
3480.25 -10.00000 -10.00000 -978.15967 -729.76 0.00 -201.91 18.10438 10.37833 0.00000
3482.84 -10.00000 -10.00000 -1021.78894 -761.55 0.00 -201.91 18.10438 11.28727 0.00000
3484.87 -10.00000 -10.00000 -1060.28540 -794.43 0.00 -201.91 18.10438 12.08928 0.00000
3488.29 -10.00000 -10.00000 -1094.25256 -827.71 0.00 -201.91 18.10438 12.79693 0.00000
3490.23 -10.00000 -10.00000 -1060.87390 -857.10 0.00 -201.91 22.79188 12.10154 0.00000
3492.84 -10.00000 -10.00000 -1121.24231 -884.62 0.00 -201.91 22.79188 13.35921 0.00000
3494.87 -10.00000 -10.00000 -1174.50879 -915.60 0.00 -201.91 22.79188 14.46893 0.00000
3498.29 -10.00000 -10.00000 -1221.50830 -948.82 0.00 -201.91 22.79188 15.44809 0.00000
3500.22 -10.00000 -10.00000 -1505.97876 -997.64 0.00 -201.91 23.85438 21.37456 0.00000
3502.84 -10.00000 -10.00000 -1519.98193 -1058.26 0.00 -201.91 23.85438 21.66629 0.00000
3504.85 -10.00000 -10.00000 -1532.33789 -1113.31 0.00 -201.91 23.85438 21.92371 0.00000
3508.29 -10.00000 -10.00000 -1543.23999 -1163.25 0.00 -201.91 23.85438 22.15083 0.00000
3510.22 -10.00000 -10.00000 -2067.44751 -1238.79 0.00 -201.91 26.10438 33.07182 0.00000
3512.87 -10.00000 -10.00000 -2028.10144 -1333.96 0.00 -201.91 26.10438 32.25211 0.00000
3514.85 -10.00000 -10.00000 -1993.38464 -1413.58 0.00 -201.91 26.10438 31.52885 0.00000
3518.29 -10.00000 -10.00000 -1962.75183 -1479.99 0.00 -201.91 26.10438 30.89066 0.00000
3520.24 -10.00000 -10.00000 -2335.95801 -1558.74 0.00 -201.91 27.85438 38.66579 0.00000
3522.84 -10.00000 -10.00000 -2274.90454 -1646.59 0.00 -201.91 27.85438 37.39384 0.00000
3524.85 -10.00000 -10.00000 -2221.03345 -1717.34 0.00 -201.91 27.85438 36.27153 0.00000
3528.29 -10.00000 -10.00000 -2173.50000 -1773.80 0.00 -201.91 27.85438 35.28125 0.00000
3530.24 -10.00000 -10.00000 -2217.32373 -1823.40 0.00 -201.91 28.22938 36.19424 0.00000
3532.84 -10.00000 -10.00000 -2172.34497 -1867.10 0.00 -201.91 28.22938 35.25719 0.00000
3534.85 -10.00000 -10.00000 -2132.65796 -1900.68 0.00 -201.91 28.22938 34.43037 0.00000
3538.29 -10.00000 -10.00000 -2097.64014 -1925.91 0.00 -201.91 28.22938 33.70084 0.00000
3540.24 -10.00000 -10.00000 -1966.68237 -1938.41 0.00 -201.91 27.79188 30.97255 0.00000
3542.84 -10.00000 -10.00000 -1948.72046 -1940.68 0.00 -201.91 27.79188 30.59834 0.00000
3544.85 -10.00000 -10.00000 -1932.87158 -1940.69 0.00 -201.91 27.79188 30.26816 0.00000
3548.29 -10.00000 -10.00000 -1918.88745 -1938.95 0.00 -201.91 27.79188 29.97682 0.00000
3550.22 -10.00000 -10.00000 -2106.66577 -1947.63 0.00 -201.91 28.66688 33.88887 0.00000
3552.84 -10.00000 -10.00000 -2077.17627 -1964.61 0.00 -201.91 28.66688 33.27451 0.00000
3554.84 -10.00000 -10.00000 -2051.15552 -1976.32 0.00 -201.91 28.66688 32.73241 0.00000
3558.28 -10.00000 -10.00000 -2028.19629 -1983.78 0.00 -201.91 28.66688 32.25409 0.00000
3560.22 -10.00000 -10.00000 -1922.17383 -1982.76 0.00 -201.91 28.29188 30.04529 0.00000
3562.86 -10.00000 -10.00000 -1912.27148 -1975.05 0.00 -201.91 28.29188 29.83899 0.00000
3564.85 -10.00000 -10.00000 -1903.53442 -1967.15 0.00 -201.91 28.29188 29.65697 0.00000
3568.29 -10.00000 -10.00000 -1895.82495 -1959.22 0.00 -201.91 28.29188 29.49635 0.00000
3570.22 -10.00000 -10.00000 -1660.31616 -1937.90 0.00 -201.91 27.29188 24.58992 0.00000
3572.83 -10.00000 -10.00000 -1675.57361 -1906.14 0.00 -201.91 27.29188 24.90778 0.00000
3574.86 -10.00000 -10.00000 -1689.03552 -1879.81 0.00 -201.91 27.29188 25.18824 0.00000
3578.29 -10.00000 -10.00000 -1700.91394 -1858.06 0.00 -201.91 27.29188 25.43571 0.00000
3580.23 -10.00000 -10.00000 -1654.21838 -1836.83 0.00 -201.91 27.04188 24.46288 0.00000
3582.83 -10.00000 -10.00000 -1668.78149 -1816.20 0.00 -201.91 27.04188 24.76628 0.00000
3584.89 -10.00000 -10.00000 -1681.63110 -1799.61 0.00 -201.91 27.04188 25.03398 0.00000
3588.29 -10.00000 -10.00000 -1692.96899 -1786.40 0.00 -201.91 27.04188 25.27019 0.00000
3590.24 -10.00000 -10.00000 -1274.14966 -1750.77 0.00 -201.91 25.16688 16.54478 0.00000
3592.83 -10.00000 -10.00000 -1322.83850 -1697.56 0.00 -201.91 25.16688 17.55914 0.00000
3594.85 -10.00000 -10.00000 -1365.79944 -1656.00 0.00 -201.91 25.16688 18.45415 0.00000
3598.29 -10.00000 -10.00000 -1403.70593 -1624.09 0.00 -201.91 25.16688 19.24387 0.00000
3600.22 -10.00000 -10.00000 -765.32959 -1560.61 0.00 -201.91 22.22938 5.94437 0.00000
3602.86 -10.00000 -10.00000 -857.29138 -1472.46 0.00 -201.91 22.22938 7.86024 0.00000
3604.85 -10.00000 -10.00000 -938.43420 -1404.86 0.00 -201.91 22.22938 9.55071 0.00000
3608.30 -10.00000 -10.00000 -1010.03101 -1354.20 0.00 -201.91 22.22938 11.04231 0.00000
3610.23 -10.00000 -10.00000 -1073.20459 -1317.42 0.00 -201.91 22.22938 12.35843 0.00000
3612.83 -10.00000 -10.00000 -1128.94592 -1291.97 0.00 -201.91 22.22938 13.51971 0.00000
3614.85 -10.00000 -10.00000 -1178.12952 -1275.68 0.00 -201.91 22.22938 14.54436 0.00000
3618.28 -10.00000 -10.00000 -1221.52661 -1266.76 0.00 -201.91 22.22938 15.44847 0.00000
3620.23 -10.00000 -10.00000 -559.40662 -1222.49 0.00 -201.91 19.16688 1.65430 0.00000
3622.84 -10.00000 -10.00000 -658.30078 -1150.30 0.00 -201.91 19.16688 3.71460 0.00000
3624.87 -10.00000 -10.00000 -745.56042 -1097.55 0.00 -201.91 19.16688 5.53251 0.00000
3628.28 -10.00000 -10.00000 -822.55408 -1060.67 0.00 -201.91 19.16688 7.13654 0.00000
3630.23 -10.00000 -10.00000 -1153.95703 -1052.15 0.00 -201.91 15.35437 14.04077 0.00000
3632.87 -10.00000 -10.00000 -1161.37500 -1064.56 0.00 -201.91 15.35437 14.19531 0.00000
3634.85 -10.00000 -10.00000 -1167.92029 -1076.34 0.00 -201.91 15.35437 14.33167 0.00000
3638.29 -10.00000 -10.00000 -1173.69543 -1087.45 0.00 -201.91 15.35437 14.45199 0.00000
3640.22 -10.00000 -10.00000 -1164.49695 -1097.06 0.00 -201.91 15.29187 14.26035 0.00000
3642.84 -10.00000 -10.00000 -1170.32190 -1105.33 0.00 -201.91 15.29187 14.38171 0.00000
3644.87 -10.00000 -10.00000 -1175.46167 -1113.28 0.00 -201.91 15.29187 14.48878 0.00000
3648.29 -10.00000 -10.00000 -1179.99646 -1120.86 0.00 -201.91 15.29187 14.58326 0.00000
3650.22 -10.00000 -10.00000 -1304.52393 -1135.14 0.00 -201.91 10.85437 17.17758 0.00000
3652.86 -10.00000 -10.00000 -1268.81592 -1152.97 0.00 -201.91 10.85437 16.43367 0.00000
3654.85 -10.00000 -10.00000 -1237.30908 -1164.75 0.00 -201.91 10.85437 15.77727 0.00000
3658.29 -10.00000 -10.00000 -1209.50879 -1171.65 0.00 -201.91 10.85437 15.19810 0.00000
3660.25 -10.00000 -10.00000 -541.74390 -1136.82 0.00 -201.91 8.04187 1.28633 0.00000
3662.84 -10.00000 -10.00000 -579.89264 -1069.06 0.00 -201.91 8.04187 2.08110 0.00000
3664.86 -10.00000 -10.00000 -613.55328 -1013.49 0.00 -201.91 8.04187 2.78236 0.00000
3668.29 -10.00000 -10.00000 -643.25391 -968.18 0.00 -201.91 8.04187 3.40112 0.00000
3669.96 -10.00000 -10.00000 -669.46033 -931.50 0.00 -201.91 8.04187 3.94709 0.00000
3673.21 -10.00000 -10.00000 -263.76013 -876.81 0.00 -201.91 6.16687 -4.50500 0.00000
3674.85 -10.00000 -10.00000 -324.02472 -808.23 0.00 -201.91 6.16687 -3.24949 0.00000
3678.29 -10.00000 -10.00000 -377.19928 -754.39 0.00 -201.91 6.16687 -2.14168 0.00000
3679.87 -10.00000 -10.00000 -424.11804 -712.77 0.00 -201.91 6.16687 -1.16421 0.00000
3683.21 -10.00000 -10.00000 -385.92566 -676.57 0.00 -201.91 0.85438 -1.95988 0.00000
3684.85 -10.00000 -10.00000 -401.81793 -643.31 0.00 -201.91 0.85438 -1.62879 0.00000
3688.29 -10.00000 -10.00000 -415.84058 -615.72 0.00 -201.91 0.85438 -1.33666 0.00000
3689.84 -10.00000 -10.00000 -428.21344 -592.94 0.00 -201.91 0.85438 -1.07889 0.00000
3693.21 -10.00000 -10.00000 -196.13068 -559.90 0.00 -201.91 -0.20812 -5.91394 0.00000
3694.85 -10.00000 -10.00000 -228.35179 -519.00 0.00 -201.91 -0.20812 -5.24267 0.00000
3698.29 -10.00000 -10.00000 -256.78220 -486.48 0.00 -201.91 -0.20812 -4.65037 0.00000
3699.88 -10.00000 -10.00000 -281.86786 -460.93 0.00 -201.91 -0.20812 -4.12775 0.00000
3703.22 -9.54296 -9.54296 -459.76703 -450.33 0.00 -201.91 -4.39563 0.03552 0.00000
3704.85 -9.57435 -9.57435 -436.25104 -450.06 0.00 -201.91 -4.39563 -0.48579 0.00000
3708.29 -9.39510 -9.39510 -405.56790 -446.63 0.00 -201.91 -4.39563 -0.94577 0.00000
3709.85 -9.21582 -9.21582 -377.48108 -440.15 0.00 -201.91 -4.39563 -1.35163 0.00000
3713.21 -1.90899 -1.90899 41.43925 -408.13 0.00 -201.91 -9.58313 -2.77231 0.00000
3714.85 -1.91670 -1.91670 79.53030 -353.00 0.00 -201.91 -9.58313 -3.57358 0.00000
3718.29 -1.71374 -1.71374 123.20849 -299.54 0.00 -201.60 -9.58313 -4.28058 0.00000
3719.85 -1.51104 -1.51104 162.88141 -247.48 0.00 -166.56 -9.58313 -4.90440 0.00000
3723.21 0.12187 0.12187 524.97614 -177.90 0.00 -119.73 -10.70813 -10.81513 0.00000
3724.85 0.16833 0.16833 526.60156 -95.11 0.00 -64.01 -10.70813 -10.80254 0.00000
3728.29 0.19382 0.19382 527.29193 -21.93 0.00 -14.76 -10.70813 -10.79143 0.00000
3729.86 0.21899 0.21899 528.02972 42.73 0.00 28.76 -10.70813 -10.78163 0.00000
3733.22 5.92171 5.92171 552.17169 101.24 0.00 68.14 -14.58313 -5.58187 0.00000
3734.85 6.15895 6.15895 614.39001 157.95 0.00 106.31 -14.58313 -6.64084 0.00000
3738.29 6.42085 6.42085 671.81165 215.03 0.00 144.72 -14.58313 -7.57523 0.00000
3739.87 6.68220 6.68220 723.93030 271.83 0.00 182.95 -14.58313 -8.39968 0.00000
3743.21 10.00000 10.00000 940.51721 337.76 0.00 201.91 -19.64562 -9.59411 0.00000
3744.85 10.00000 10.00000 997.27808 412.01 0.00 201.91 -19.64562 -10.77663 0.00000
3748.29 10.00000 10.00000 1047.36145 483.81 0.00 201.91 -19.64562 -11.82003 0.00000
3749.87 10.00000 10.00000 1091.55249 552.71 0.00 201.91 -19.64562 -12.74068 0.00000
3753.21 10.00000 10.00000 1087.66260 615.88 0.00 201.91 -19.45812 -12.65964 0.00000
3754.85 10.00000 10.00000 1126.05359 673.64 0.00 201.91 -19.45812 -13.45945 0.00000
3758.28 10.00000 10.00000 1159.92810 728.86 0.00 201.91 -19.45812 -14.16517 0.00000
3759.84 10.00000 10.00000 1189.81750 781.33 0.00 201.91 -19.45812 -14.78786 0.00000
3763.21 10.00000 10.00000 1438.72339 844.03 0.00 201.91 -25.39562 -19.97340 0.00000
3764.84 10.00000 10.00000 1469.34265 915.79 0.00 201.91 -25.39562 -20.61131 0.00000
3768.29 10.00000 10.00000 1496.35950 982.51 0.00 201.91 -25.39562 -21.17416 0.00000
3769.86 10.00000 10.00000 1520.19836 1044.36 0.00 201.91 -25.39562 -21.67080 0.00000
3773.21 10.00000 10.00000 1555.52600 1102.42 0.00 201.91 -25.45812 -22.40679 0.00000
3774.85 10.00000 10.00000 1572.75659 1156.74 0.00 201.91 -25.45812 -22.76576 0.00000
3778.29 10.00000 10.00000 1587.96021 1206.58 0.00 201.91 -25.45812 -23.08250 0.00000
3779.86 10.00000 10.00000 1601.37524 1252.24 0.00 201.91 -25.45812 -23.36198 0.00000
3783.21 10.00000 10.00000 1870.50586 1309.14 0.00 201.91 -26.58312 -28.96887 0.00000
3784.85 10.00000 10.00000 1857.03259 1374.39 0.00 201.91 -26.58312 -28.68818 0.00000
3788.29 10.00000 10.00000 1845.14465 1430.47 0.00 201.91 -26.58312 -28.44051 0.00000
3789.86 10.00000 10.00000 1834.65491 1478.64 0.00 201.91 -26.58312 -28.22198 0.00000
3793.21 10.00000 10.00000 2482.92871 1558.66 0.00 201.91 -29.45812 -41.72768 0.00000
3794.85 10.00000 10.00000 2413.64062 1663.32 0.00 201.91 -29.45812 -40.28418 0.00000
3798.29 10.00000 10.00000 2352.50391 1748.00 0.00 201.91 -29.45812 -39.01050 0.00000
3799.87 10.00000 10.00000 2298.55957 1815.94 0.00 201.91 -29.45812 -37.88666 0.00000
3803.20 10.00000 10.00000 1622.02075 1832.92 0.00 201.91 -26.70812 -23.79210 0.00000
3804.85 10.00000 10.00000 1638.48706 1809.08 0.00 201.91 -26.70812 -24.13515 0.00000
3808.28 10.00000 10.00000 1653.01611 1789.87 0.00 201.91 -26.70812 -24.43784 0.00000
3809.84 10.00000 10.00000 1665.83569 1774.52 0.00 201.91 -26.70812 -24.70491 0.00000
3813.21 10.00000 10.00000 2277.50024 1797.71 0.00 201.91 -29.33312 -37.44792 0.00000
3814.85 10.00000 10.00000 2231.67480 1851.46 0.00 201.91 -29.33312 -36.49323 0.00000
3818.28 10.00000 10.00000 2191.24072 1893.82 0.00 201.91 -29.33312 -35.65085 0.00000
3819.84 10.00000 10.00000 2155.56372 1926.71 0.00 201.91 -29.33312 -34.90758 0.00000
3823.21 10.00000 10.00000 1852.49561 1935.80 0.00 201.91 -28.14562 -28.59366 0.00000
3824.85 10.00000 10.00000 1849.96509 1925.85 0.00 201.91 -28.14562 -28.54094 0.00000
3828.29 10.00000 10.00000 1847.73267 1916.79 0.00 201.91 -28.14562 -28.49443 0.00000
3829.86 10.00000 10.00000 1845.76318 1908.55 0.00 201.91 -28.14562 -28.45340 0.00000
3833.21 10.00000 10.00000 1229.37744 1864.91 0.00 201.91 -25.45812 -15.61203 0.00000
3834.84 10.00000 10.00000 1284.97852 1793.41 0.00 201.91 -25.45812 -16.77039 0.00000
3838.28 10.00000 10.00000 1334.03833 1736.48 0.00 201.91 -25.45812 -17.79247 0.00000
3839.84 10.00000 10.00000 1377.32593 1691.68 0.00 201.91 -25.45812 -18.69429 0.00000
3843.21 10.00000 10.00000 1815.75659 1680.49 0.00 201.91 -27.20812 -27.82826 0.00000
3844.85 10.00000 10.00000 1812.25415 1696.20 0.00 201.91 -27.20812 -27.75529 0.00000
3848.29 10.00000 10.00000 1809.16333 1709.67 0.00 201.91 -27.20812 -27.69090 0.00000
3849.86 10.00000 10.00000 1806.43652 1721.21 0.00 201.91 -27.20812 -27.63409 0.00000
3853.21 10.00000 10.00000 2067.49854 1746.60 0.00 201.91 -23.39562 -33.07288 0.00000
3854.85 10.00000 10.00000 2012.84949 1781.13 0.00 201.91 -23.39562 -31.93436 0.00000
3858.29 10.00000 10.00000 1964.63049 1805.56 0.00 201.91 -23.39562 -30.92980 0.00000
3859.86 10.00000 10.00000 1922.08411 1821.77 0.00 201.91 -23.39562 -30.04342 0.00000
3863.21 10.00000 10.00000 1227.01355 1792.68 0.00 201.91 -20.52062 -15.56278 0.00000
3864.85 10.00000 10.00000 1255.01038 1727.78 0.00 201.91 -20.52062 -16.14605 0.00000
3868.29 10.00000 10.00000 1279.71350 1673.61 0.00 201.91 -20.52062 -16.66070 0.00000
3869.84 10.00000 10.00000 1301.51038 1628.56 0.00 201.91 -20.52062 -17.11480 0.00000
3873.21 10.00000 10.00000 1477.97827 1600.46 0.00 201.91 -21.20812 -20.79121 0.00000
3874.84 10.00000 10.00000 1480.33228 1586.19 0.00 201.91 -21.20812 -20.84026 0.00000
3878.29 10.00000 10.00000 1482.40906 1573.86 0.00 201.91 -21.20812 -20.88352 0.00000
3879.85 10.00000 10.00000 1484.24158 1563.21 0.00 201.91 -21.20812 -20.92170 0.00000
3883.21 10.00000 10.00000 1234.73804 1539.24 0.00 201.91 -15.14563 -15.72371 0.00000
3884.85 10.00000 10.00000 1231.47327 1503.22 0.00 201.91 -15.14563 -15.65569 0.00000
3888.28 10.00000 10.00000 1228.59229 1471.08 0.00 201.91 -15.14563 -15.59567 0.00000
3889.84 10.00000 10.00000 1226.05042 1442.41 0.00 201.91 -15.14563 -15.54272 0.00000
3893.21 10.00000 10.00000 594.86646 1379.82 0.00 201.91 -12.39563 -2.39305 0.00000
3894.85 10.00000 10.00000 651.35138 1290.80 0.00 201.91 -12.39563 -3.56982 0.00000
3898.29 10.00000 10.00000 701.19104 1218.50 0.00 201.91 -12.39563 -4.60815 0.00000
3899.84 10.00000 10.00000 745.16730 1160.23 0.00 201.91 -12.39563 -5.52432 0.00000
3903.21 10.00000 10.00000 512.38147 1097.70 0.00 201.91 -11.20813 -0.67461 0.00000
3904.85 10.00000 10.00000 571.86456 1032.34 0.00 201.91 -11.20813 -1.91385 0.00000
3908.29 10.00000 10.00000 624.34955 981.25 0.00 201.91 -11.20813 -3.00728 0.00000
3909.86 10.00000 10.00000 670.65985 941.99 0.00 201.91 -11.20813 -3.97208 0.00000
3913.21 10.00000 10.00000 488.98965 899.38 0.00 201.91 -5.27063 -0.18728 0.00000
3914.85 10.00000 10.00000 517.69543 852.79 0.00 201.91 -5.27063 -0.78532 0.00000
3918.29 10.00000 10.00000 543.02417 814.86 0.00 201.91 -5.27063 -1.31300 0.00000
3919.85 10.00000 10.00000 565.37305 784.19 0.00 201.91 -5.27063 -1.77860 0.00000
3923.21 8.79742 8.79742 819.42432 773.39 0.00 201.91 -1.58312 -8.27392 0.00000
3924.84 8.88075 8.88075 785.64087 776.82 0.00 201.91 -1.58312 -7.48677 0.00000
3928.28 9.03047 9.03047 759.48895 776.32 0.00 201.91 -1.58312 -6.79222 0.00000
3929.86 9.18019 9.18019 737.25958 773.03 0.00 201.91 -1.58312 -6.17938 0.00000
3933.21 5.29736 5.29736 -104.01306 719.34 0.00 201.91 1.16688 7.46429 0.00000
3934.84 5.29198 5.29198 -68.70934 624.55 0.00 201.91 1.16688 6.72342 0.00000
3938.28 5.39616 5.39616 -32.33011 545.13 0.00 201.91 1.16688 6.06971 0.00000
3939.86 5.50042 5.50042 0.36099 479.12 0.00 201.91 1.16688 5.49290 0.00000
3943.21 -2.78495 -2.78495 -566.85193 389.43 0.00 201.91 6.97937 9.02446 0.00000
3944.84 -2.87446 -2.87446 -559.59912 277.35 0.00 186.67 6.97937 8.78386 0.00000
3948.29 -2.95535 -2.95535 -553.29181 179.26 0.00 120.65 6.97937 8.57156 0.00000
3949.86 -3.03602 -3.03602 -548.17236 93.37 0.00 62.84 6.97937 8.38424 0.00000
3953.21 -7.46661 -7.46661 -1467.61328 -36.19 0.00 -24.35 10.10437 23.10866 0.00000
3954.85 -7.49075 -7.49075 -1395.33533 -200.34 0.00 -134.83 10.10437 21.57874 0.00000
3958.29 -7.47932 -7.47932 -1329.98999 -337.08 0.00 -201.91 10.10437 20.22881 0.00000
3959.86 -7.46784 -7.46784 -1272.26550 -450.50 0.00 -201.91 10.10437 19.03769 0.00000
3963.21 -10.00000 -10.00000 -1251.42407 -545.95 0.00 -201.91 14.66687 16.07133 0.00000
3964.85 -10.00000 -10.00000 -1243.49268 -628.48 0.00 -201.91 14.66687 15.90610 0.00000
3968.29 -10.00000 -10.00000 -1236.49438 -700.42 0.00 -201.91 14.66687 15.76030 0.00000
3969.87 -10.00000 -10.00000 -1230.31934 -763.13 0.00 -201.91 14.66687 15.63165 0.00000
3973.21 -10.00000 -10.00000 -1118.63928 -811.52 0.00 -201.91 19.16688 13.30499 0.00000
3974.85 -10.00000 -10.00000 -1151.74146 -849.60 0.00 -201.91 19.16688 13.99461 0.00000
3978.29 -10.00000 -10.00000 -1180.94934 -886.86 0.00 -201.91 19.16688 14.60311 0.00000
3979.85 -10.00000 -10.00000 -1206.72107 -922.98 0.00 -201.91 19.16688 15.14002 0.00000
3983.21 -10.00000 -10.00000 -908.81653 -938.84 0.00 -201.91 22.72938 8.93368 0.00000
3984.85 -10.00000 -10.00000 -986.72131 -939.89 0.00 -201.91 22.72938 10.55669 0.00000
3988.29 -10.00000 -10.00000 -1055.46057 -949.44 0.00 -201.91 22.72938 11.98876 0.00000
3989.85 -10.00000 -10.00000 -1116.11279 -965.48 0.00 -201.91 22.72938 13.25235 0.00000
3993.21 -10.00000 -10.00000 -820.39746 -965.81 0.00 -201.91 26.16688 7.09161 0.00000
3994.85 -10.00000 -10.00000 -928.11621 -955.04 0.00 -201.91 26.16688 9.33575 0.00000
3998.29 -10.00000 -10.00000 -1023.16187 -957.46 0.00 -201.91 26.16688 11.31587 0.00000
3999.85 -10.00000 -10.00000 -1107.02563 -970.12 0.00 -201.91 26.16688 13.06303 0.00000
4003.21 -10.00000 -10.00000 -1252.49414 -994.79 0.00 -201.91 26.47938 16.09363 0.00000
4004.85 -10.00000 -10.00000 -1311.14282 -1028.55 0.00 -201.91 26.47938 17.31548 0.00000
4008.29 -10.00000 -10.00000 -1362.89136 -1064.84 0.00 -201.91 26.47938 18.39357 0.00000
4009.85 -10.00000 -10.00000 -1408.55200 -1102.59 0.00 -201.91 26.47938 19.34483 0.00000
4013.21 -10.00000 -10.00000 -1071.02051 -1118.73 0.00 -201.91 29.79188 12.31293 0.00000
4014.84 -10.00000 -10.00000 -1169.72461 -1118.93 0.00 -201.91 29.79188 14.36926 0.00000
4018.29 -10.00000 -10.00000 -1256.81616 -1130.03 0.00 -201.91 29.79188 16.18367 0.00000
4019.86 -10.00000 -10.00000 -1333.66187 -1149.46 0.00 -201.91 29.79188 17.78462 0.00000
4023.21 -10.00000 -10.00000 -1344.29004 -1171.76 0.00 -201.91 29.54188 18.00604 0.00000
4024.85 -10.00000 -10.00000 -1409.43311 -1195.89 0.00 -201.91 29.54188 19.36319 0.00000
4028.29 -10.00000 -10.00000 -1466.91211 -1224.39 0.00 -201.91 29.54188 20.56067 0.00000
4029.84 -10.00000 -10.00000 -1517.62939 -1255.91 0.00 -201.91 29.54188 21.61728 0.00000
4033.21 -10.00000 -10.00000 -1462.32056 -1283.44 0.00 -201.91 29.10438 20.46501 0.00000
4034.84 -10.00000 -10.00000 -1511.10645 -1307.36 0.00 -201.91 29.10438 21.48138 0.00000
4038.29 -10.00000 -10.00000 -1554.15308 -1333.86 0.00 -201.91 29.10438 22.37819 0.00000
4039.87 -10.00000 -10.00000 -1592.13574 -1362.01 0.00 -201.91 29.10438 23.16949 0.00000
4043.21 -10.00000 -10.00000 -2125.94312 -1420.49 0.00 -201.91 31.29188 34.29048 0.00000
4044.85 -10.00000 -10.00000 -2109.00879 -1502.48 0.00 -201.91 31.29188 33.93768 0.00000
4048.29 -10.00000 -10.00000 -2094.06665 -1572.96 0.00 -201.91 31.29188 33.62639 0.00000
4049.84 -10.00000 -10.00000 -2080.88232 -1633.49 0.00 -201.91 31.29188 33.35172 0.00000
4053.20 -10.00000 -10.00000 -1954.89624 -1678.72 0.00 -201.91 30.79188 30.72701 0.00000
4054.85 -10.00000 -10.00000 -1955.26172 -1711.23 0.00 -201.91 30.79188 30.73462 0.00000
4058.29 -10.00000 -10.00000 -1955.58398 -1739.96 0.00 -201.91 30.79188 30.74133 0.00000
4059.86 -10.00000 -10.00000 -1955.86890 -1765.34 0.00 -201.91 30.79188 30.74727 0.00000
4063.21 -10.00000 -10.00000 -1698.82617 -1772.64 0.00 -201.91 29.66688 25.39221 0.00000
4064.85 -10.00000 -10.00000 -1722.96460 -1765.37 0.00 -201.91 29.66688 25.89510 0.00000
4068.30 -10.00000 -10.00000 -1744.26343 -1761.64 0.00 -201.91 29.66688 26.33882 0.00000
4069.86 -10.00000 -10.00000 -1763.05591 -1760.70 0.00 -201.91 29.66688 26.73033 0.00000
4073.21 -10.00000 -10.00000 -1679.57959 -1756.06 0.00 -201.91 29.22938 24.99124 0.00000
4074.85 -10.00000 -10.00000 -1703.51221 -1748.47 0.00 -201.91 29.22938 25.48984 0.00000
4078.28 -10.00000 -10.00000 -1724.62939 -1744.43 0.00 -201.91 29.22938 25.92978 0.00000
4079.87 -10.00000 -10.00000 -1743.26221 -1743.19 0.00 -201.91 29.22938 26.31796 0.00000
4083.22 -10.00000 -10.00000 -2137.52344 -1766.39 0.00 -201.91 25.91688 34.53174 0.00000
4084.85 -10.00000 -10.00000 -2088.87402 -1807.19 0.00 -201.91 25.91688 33.51821 0.00000
4088.28 -10.00000 -10.00000 -2045.94836 -1837.81 0.00 -201.91 25.91688 32.62392 0.00000
4089.87 -10.00000 -10.00000 -2008.07263 -1860.07 0.00 -201.91 25.91688 31.83485 0.00000
4093.20 -10.00000 -10.00000 -2103.30078 -1883.08 0.00 -201.91 26.47938 33.81876 0.00000
4094.84 -10.00000 -10.00000 -2061.85400 -1906.55 0.00 -201.91 26.47938 32.95529 0.00000
4098.29 -10.00000 -10.00000 -2025.28345 -1922.67 0.00 -201.91 26.47938 32.19341 0.00000
4099.86 -10.00000 -10.00000 -1993.01587 -1932.84 0.00 -201.91 26.47938 31.52116 0.00000
4103.21 -10.00000 -10.00000 -2156.54102 -1949.54 0.00 -201.91 22.35438 34.92794 0.00000
4104.85 -10.00000 -10.00000 -2085.53711 -1969.72 0.00 -201.91 22.35438 33.44869 0.00000
4108.29 -10.00000 -10.00000 -2022.88660 -1979.66 0.00 -201.91 22.35438 32.14347 0.00000
4109.87 -10.00000 -10.00000 -1967.60632 -1981.49 0.00 -201.91 22.35438 30.99180 0.00000
4113.21 -10.00000 -10.00000 -1418.53564 -1947.56 0.00 -201.91 20.16688 19.55283 0.00000
4114.84 -10.00000 -10.00000 -1422.00293 -1885.53 0.00 -201.91 20.16688 19.62506 0.00000
4118.29 -10.00000 -10.00000 -1425.06226 -1831.17 0.00 -201.91 20.16688 19.68880 0.00000
4119.85 -10.00000 -10.00000 -1427.76160 -1783.55 0.00 -201.91 20.16688 19.74503 0.00000
4123.21 -10.00000 -10.00000 -1129.96692 -1724.18 0.00 -201.91 18.85438 13.54098 0.00000
4124.85 -10.00000 -10.00000 -1159.97168 -1656.04 0.00 -201.91 18.85438 14.16608 0.00000
4128.28 -10.00000 -10.00000 -1186.44653 -1599.23 0.00 -201.91 18.85438 14.71764 0.00000
4129.85 -10.00000 -10.00000 -1209.80676 -1552.04 0.00 -201.91 18.85438 15.20431 0.00000
4133.21 -10.00000 -10.00000 -1322.35645 -1518.40 0.00 -201.91 14.29187 17.54909 0.00000
4134.85 -10.00000 -10.00000 -1303.96252 -1494.26 0.00 -201.91 14.29187 17.16589 0.00000
4138.29 -10.00000 -10.00000 -1287.73279 -1470.91 0.00 -201.91 14.29187 16.82777 0.00000
4139.85 -10.00000 -10.00000 -1273.41248 -1448.52 0.00 -201.91 14.29187 16.52943 0.00000
4143.21 -10.00000 -10.00000 -803.36499 -1400.27 0.00 -201.91 12.29187 6.73677 0.00000
4144.84 -10.00000 -10.00000 -834.73480 -1331.89 0.00 -201.91 12.29187 7.39031 0.00000
4148.29 -10.00000 -10.00000 -862.41412 -1275.03 0.00 -201.91 12.29187 7.96696 0.00000
4149.84 -10.00000 -10.00000 -886.83710 -1227.92 0.00 -201.91 12.29187 8.47577 0.00000
4153.20 -10.00000 -10.00000 -350.91614 -1156.27 0.00 -201.91 9.85437 -2.68925 0.00000
4154.85 -10.00000 -10.00000 -421.75067 -1065.69 0.00 -201.91 9.85437 -1.21353 0.00000
4158.29 -10.00000 -10.00000 -484.25171 -993.61 0.00 -201.91 9.85437 0.08858 0.00000
4159.87 -10.00000 -10.00000 -539.39960 -936.93 0.00 -201.91 9.85437 1.23749 0.00000
4163.21 -10.00000 -10.00000 -880.11499 -910.20 0.00 -201.91 6.16687 8.33573 0.00000
4164.85 -10.00000 -10.00000 -867.86707 -905.94 0.00 -201.91 6.16687 8.08056 0.00000
4168.29 -10.00000 -10.00000 -857.06018 -900.83 0.00 -201.91 6.16687 7.85542 0.00000
4169.85 -10.00000 -10.00000 -847.52478 -895.12 0.00 -201.91 6.16687 7.65677 0.00000
4173.21 -10.00000 -10.00000 -295.93469 -857.07 0.00 -201.91 3.79187 -3.83469 0.00000
4174.85 -10.00000 -10.00000 -339.00226 -793.59 0.00 -201.91 3.79187 -2.93745 0.00000
4178.29 -10.00000 -10.00000 -377.00305 -742.34 0.00 -201.91 3.79187 -2.14577 0.00000
4179.85 -10.00000 -10.00000 -410.53317 -701.33 0.00 -201.91 3.79187 -1.44723 0.00000
4183.22 -10.00000 -10.00000 -746.46844 -686.88 0.00 -201.91 0.16688 5.55143 0.00000
4184.85 -10.00000 -10.00000 -716.06152 -692.10 0.00 -201.91 0.16688 4.91795 0.00000
4188.29 -10.00000 -10.00000 -689.23193 -693.34 0.00 -201.91 0.16688 4.35900 0.00000
4189.84 -10.00000 -10.00000 -665.55878 -691.47 0.00 -201.91 0.16688 3.86581 0.00000
4193.22 -10.00000 -10.00000 -908.13806 -702.69 0.00 -201.91 -3.64563 8.91954 0.00000
4194.85 -10.00000 -10.00000 -837.18182 -722.69 0.00 -201.91 -3.64563 7.44129 0.00000
4198.28 -10.00000 -10.00000 -774.57336 -732.47 0.00 -201.91 -3.64563 6.13695 0.00000
4199.86 -10.00000 -10.00000 -719.33069 -734.18 0.00 -201.91 -3.64563 4.98606 0.00000
4203.21 -10.00000 -10.00000 -499.05771 -719.47 0.00 -201.91 -4.39563 0.39704 0.00000
4204.85 -10.00000 -10.00000 -471.99335 -691.95 0.00 -201.91 -4.39563 -0.16681 0.00000
4208.29 -10.00000 -10.00000 -448.11310 -664.67 0.00 -201.91 -4.39563 -0.66431 0.00000
4209.85 -10.00000 -10.00000 -427.04224 -637.95 0.00 -201.91 -4.39563 -1.10329 0.00000
4213.21 -4.04757 -4.04757 56.91660 -584.67 0.00 -201.91 -10.14563 -5.23333 0.00000
4214.84 -3.95634 -3.95634 89.03526 -507.30 0.00 -201.91 -10.14563 -5.81124 0.00000
4218.29 -3.79219 -3.79219 121.39059 -435.24 0.00 -201.91 -10.14563 -6.32116 0.00000
4219.86 -3.62836 -3.62836 150.85106 -368.02 0.00 -201.91 -10.14563 -6.77109 0.00000
4223.21 -2.75026 -2.75026 354.99677 -294.97 0.00 -198.52 -10.77063 -10.14603 0.00000
4224.85 -2.75345 -2.75345 358.37073 -218.30 0.00 -146.93 -10.77063 -10.21951 0.00000
4228.29 -2.71005 -2.71005 363.56610 -150.15 0.00 -101.06 -10.77063 -10.28434 0.00000
4229.84 -2.66683 -2.66683 368.38632 -89.43 0.00 -60.19 -10.77063 -10.34155 0.00000
4233.22 2.74656 2.74656 324.30267 -38.16 0.00 -25.69 -14.39563 -4.00974 0.00000
4234.85 3.04868 3.04868 397.45422 8.78 0.00 5.91 -14.39563 -5.23161 0.00000
4238.29 3.10889 3.10889 452.09381 57.72 0.00 38.85 -14.39563 -6.30973 0.00000
4239.86 3.16894 3.16894 500.63754 106.97 0.00 72.00 -14.39563 -7.26101 0.00000
4243.22 7.94224 7.94224 363.63647 145.23 0.00 97.74 -17.58312 0.36648 0.00000
4244.85 8.21914 8.21914 478.28973 177.67 0.00 119.58 -17.58312 -1.74523 0.00000
4248.29 8.46839 8.46839 579.69086 219.00 0.00 147.39 -17.58312 -3.60851 0.00000
4249.86 8.71673 8.71673 670.52631 266.78 0.00 179.55 -17.58312 -5.25257 0.00000
4253.21 10.00000 10.00000 1259.16614 348.90 0.00 201.91 -19.58312 -16.23263 0.00000
4254.85 10.00000 10.00000 1278.08643 457.11 0.00 201.91 -19.58312 -16.62680 0.00000
4258.28 10.00000 10.00000 1294.78088 554.67 0.00 201.91 -19.58312 -16.97460 0.00000
4259.86 10.00000 10.00000 1309.51135 642.61 0.00 201.91 -19.58312 -17.28149 0.00000
4263.21 10.00000 10.00000 1837.09680 752.10 0.00 201.91 -21.83312 -28.27285 0.00000
4264.85 10.00000 10.00000 1800.73059 877.61 0.00 201.91 -21.83312 -27.51522 0.00000
4268.28 10.00000 10.00000 1768.64319 984.33 0.00 201.91 -21.83312 -26.84673 0.00000
4269.85 10.00000 10.00000 1740.33069 1074.93 0.00 201.91 -21.83312 -26.25689 0.00000
4273.21 10.00000 10.00000 1394.70483 1132.88 0.00 201.91 -25.39562 -19.05635 0.00000
4274.85 10.00000 10.00000 1430.50305 1165.79 0.00 201.91 -25.39562 -19.80215 0.00000
4278.28 10.00000 10.00000 1462.08948 1198.79 0.00 201.91 -25.39562 -20.46020 0.00000
4279.84 10.00000 10.00000 1489.95959 1231.41 0.00 201.91 -25.39562 -21.04082 0.00000
4283.21 10.00000 10.00000 1214.37488 1245.62 0.00 201.91 -24.08312 -15.29948 0.00000
4284.84 10.00000 10.00000 1263.97632 1244.86 0.00 201.91 -24.08312 -16.33284 0.00000
4288.29 10.00000 10.00000 1307.74219 1249.68 0.00 201.91 -24.08312 -17.24463 0.00000
4289.86 10.00000 10.00000 1346.35913 1258.78 0.00 201.91 -24.08312 -18.04915 0.00000
4293.21 10.00000 10.00000 1102.67139 1254.75 0.00 201.91 -27.83312 -12.97232 0.00000
4294.84 10.00000 10.00000 1186.59082 1241.80 0.00 201.91 -27.83312 -14.72064 0.00000
4298.28 10.00000 10.00000 1260.63721 1239.66 0.00 201.91 -27.83312 -16.26328 0.00000
4299.87 10.00000 10.00000 1325.97217 1245.97 0.00 201.91 -27.83312 -17.62442 0.00000
4303.21 10.00000 10.00000 911.91504 1231.02 0.00 201.91 -25.77062 -8.99823 0.00000
4304.84 10.00000 10.00000 1006.62927 1199.05 0.00 201.91 -25.77062 -10.97144 0.00000
4308.29 10.00000 10.00000 1090.20081 1181.33 0.00 201.91 -25.77062 -12.71252 0.00000
4309.85 10.00000 10.00000 1163.94031 1174.95 0.00 201.91 -25.77062 -14.24876 0.00000
4313.21 10.00000 10.00000 1414.82776 1188.41 0.00 201.91 -26.58312 -19.47558 0.00000
4314.85 10.00000 10.00000 1454.96375 1217.41 0.00 201.91 -26.58312 -20.31174 0.00000
4318.29 10.00000 10.00000 1490.37781 1247.44 0.00 201.91 -26.58312 -21.04954 0.00000
4319.87 10.00000 10.00000 1521.62585 1277.86 0.00 201.91 -26.58312 -21.70054 0.00000
4323.21 10.00000 10.00000 1634.96228 1313.20 0.00 201.91 -26.95812 -24.06171 0.00000
4324.84 10.00000 10.00000 1651.31799 1352.02 0.00 201.91 -26.95812 -24.40246 0.00000
4328.29 10.00000 10.00000 1665.74963 1388.08 0.00 201.91 -26.95812 -24.70312 0.00000
4329.86 10.00000 10.00000 1678.48279 1421.50 0.00 201.91 -26.95812 -24.96839 0.00000
4333.21 10.00000 10.00000 1175.13025 1422.12 0.00 201.91 -24.70812 -14.48188 0.00000
4334.85 10.00000 10.00000 1232.87805 1396.46 0.00 201.91 -24.70812 -15.68496 0.00000
4338.29 10.00000 10.00000 1283.83191 1380.21 0.00 201.91 -24.70812 -16.74650 0.00000
4339.86 10.00000 10.00000 1328.79163 1371.52 0.00 201.91 -24.70812 -17.68316 0.00000
4343.21 10.00000 10.00000 1211.22620 1359.58 0.00 201.91 -24.02062 -15.23388 0.00000
4344.85 10.00000 10.00000 1260.84485 1345.04 0.00 201.91 -24.02062 -16.26760 0.00000
4348.29 10.00000 10.00000 1304.62573 1337.71 0.00 201.91 -24.02062 -17.17970 0.00000
4349.86 10.00000 10.00000 1343.25586 1336.09 0.00 201.91 -24.02062 -17.98450 0.00000
4353.21 10.00000 10.00000 1220.10645 1329.69 0.00 201.91 -23.33312 -15.41888 0.00000
4354.85 10.00000 10.00000 1264.79810 1319.43 0.00 201.91 -23.33312 -16.34996 0.00000
4358.28 10.00000 10.00000 1304.23206 1315.32 0.00 201.91 -23.33312 -17.17150 0.00000
4359.85 10.00000 10.00000 1339.02649 1316.06 0.00 201.91 -23.33312 -17.89639 0.00000
4363.21 10.00000 10.00000 1518.84229 1329.34 0.00 201.91 -19.02062 -21.64255 0.00000
4364.85 10.00000 10.00000 1504.03601 1350.76 0.00 201.91 -19.02062 -21.33408 0.00000
4368.28 10.00000 10.00000 1490.97144 1368.03 0.00 201.91 -19.02062 -21.06190 0.00000
4369.85 10.00000 10.00000 1479.44385 1381.81 0.00 201.91 -19.02062 -20.82175 0.00000
4373.21 10.00000 10.00000 1569.33142 1398.59 0.00 201.91 -19.45812 -22.69440 0.00000
4374.85 10.00000 10.00000 1551.05566 1417.60 0.00 201.91 -19.45812 -22.31366 0.00000
4378.28 10.00000 10.00000 1534.92993 1432.35 0.00 201.91 -19.45812 -21.97771 0.00000
4379.87 10.00000 10.00000 1520.70117 1443.58 0.00 201.91 -19.45812 -21.68127 0.00000
4383.21 10.00000 10.00000 1642.96704 1459.85 0.00 201.91 -15.08313 -24.22848 0.00000
4384.84 10.00000 10.00000 1591.32239 1478.35 0.00 201.91 -15.08313 -23.15255 0.00000
4388.28 10.00000 10.00000 1545.75366 1488.96 0.00 201.91 -15.08313 -22.20320 0.00000
4389.84 10.00000 10.00000 1505.54590 1493.28 0.00 201.91 -15.08313 -21.36554 0.00000
4392.94 10.00000 10.00000 1470.06848 1492.63 0.00 201.91 -15.08313 -20.62643 0.00000
4395.22 10.00000 10.00000 1716.52637 1504.48 0.00 201.91 -11.33313 -25.76097 0.00000
4398.28 10.00000 10.00000 1635.05151 1524.63 0.00 201.91 -11.33313 -24.06357 0.00000
4399.84 10.00000 10.00000 1563.16162 1533.39 0.00 201.91 -11.33313 -22.56587 0.00000
4402.83 10.00000 10.00000 1499.72949 1533.16 0.00 201.91 -11.33313 -21.24437 0.00000
4405.23 10.00000 10.00000 1072.11304 1504.08 0.00 201.91 -9.70813 -12.33569 0.00000
4408.28 10.00000 10.00000 1057.27478 1452.38 0.00 201.91 -9.70813 -12.02656 0.00000
4409.85 10.00000 10.00000 1044.18213 1405.13 0.00 201.91 -9.70813 -11.75380 0.00000
4412.83 10.00000 10.00000 1032.62988 1361.99 0.00 201.91 -9.70813 -11.51312 0.00000
4415.25 6.87449 6.87449 721.35022 1304.93 0.00 201.91 -4.08313 -8.15364 0.00000
4418.29 6.97102 6.97102 702.99713 1235.19 0.00 201.91 -4.08313 -7.67476 0.00000
4419.84 7.06749 7.06749 687.34583 1171.66 0.00 201.91 -4.08313 -7.25221 0.00000
4422.84 7.20595 7.20595 676.09546 1114.02 0.00 201.91 -4.08313 -6.87937 0.00000
4425.24 2.10139 2.10139 707.34167 1064.34 0.00 201.91 -0.39562 -12.63489 0.00000
4428.28 2.22679 2.22679 644.24512 1018.63 0.00 201.91 -0.39562 -11.19498 0.00000
4429.85 2.35220 2.35220 589.28015 971.35 0.00 201.91 -0.39562 -9.92447 0.00000
4432.84 2.38289 2.38289 536.94342 923.32 0.00 201.91 -0.39562 -8.80343 0.00000
4435.24 -3.18456 -3.18456 457.10550 873.17 0.00 201.91 3.54187 -12.70759 0.00000
4438.29 -3.17103 -3.17103 365.99335 818.86 0.00 201.91 3.54187 -10.79589 0.00000
4439.85 -3.15722 -3.15722 285.68988 760.86 0.00 201.91 3.54187 -9.10909 0.00000
4442.84 -3.07259 -3.07259 218.31152 700.99 0.00 201.91 3.54187 -7.62074 0.00000
4445.22 -10.00000 -10.00000 -285.41986 614.57 0.00 201.91 8.97937 -4.05375 0.00000
4448.30 -10.00000 -10.00000 -359.01855 504.36 0.00 201.91 8.97937 -2.52045 0.00000
4449.84 -10.00000 -10.00000 -423.95856 398.97 0.00 201.91 8.97937 -1.16753 0.00000
4452.84 -10.00000 -10.00000 -481.25848 298.78 0.00 201.09 8.97937 0.02622 0.00000
4455.23 -10.00000 -10.00000 -182.58508 224.58 0.00 151.15 12.41687 -6.19614 0.00000
4458.28 -10.00000 -10.00000 -287.69366 170.50 0.00 114.75 12.41687 -4.00638 0.00000
4459.87 -10.00000 -10.00000 -380.43658 111.14 0.00 74.80 12.41687 -2.07424 0.00000
4462.84 -10.00000 -10.00000 -462.26843 48.49 0.00 32.64 12.41687 -0.36941 0.00000
4465.25 -10.00000 -10.00000 -485.41772 -12.96 0.00 -8.72 17.16688 0.11287 0.00000
4468.28 -10.00000 -10.00000 -581.72278 -74.21 0.00 -49.94 17.16688 2.11922 0.00000
4469.86 -10.00000 -10.00000 -666.69763 -138.91 0.00 -93.49 17.16688 3.88953 0.00000
4472.84 -10.00000 -10.00000 -741.67529 -205.42 0.00 -138.25 17.16688 5.45157 0.00000
4475.24 -10.00000 -10.00000 -873.12891 -276.24 0.00 -185.92 22.41688 8.19019 0.00000
4478.28 -10.00000 -10.00000 -953.46716 -351.19 0.00 -201.91 22.41688 9.86390 0.00000
4479.85 -10.00000 -10.00000 -1024.35388 -426.21 0.00 -201.91 22.41688 11.34071 0.00000
4482.84 -10.00000 -10.00000 -1086.90125 -500.26 0.00 -201.91 22.41688 12.64378 0.00000
4485.22 -10.00000 -10.00000 -1121.62207 -571.32 0.00 -201.91 27.29188 13.36713 0.00000
4488.29 -10.00000 -10.00000 -1200.25525 -640.69 0.00 -201.91 27.29188 15.00532 0.00000
4489.85 -10.00000 -10.00000 -1269.63757 -710.60 0.00 -201.91 27.29188 16.45078 0.00000
4492.84 -10.00000 -10.00000 -1330.85706 -779.97 0.00 -201.91 27.29188 17.72619 0.00000
4495.21 -10.00000 -10.00000 -2085.28613 -889.16 0.00 -201.91 30.35438 33.44346 0.00000
4498.29 -10.00000 -10.00000 -2067.84082 -1028.85 0.00 -201.91 30.35438 33.08002 0.00000
4499.85 -10.00000 -10.00000 -2052.44824 -1150.18 0.00 -201.91 30.35438 32.75934 0.00000
4502.84 -10.00000 -10.00000 -2038.86694 -1255.53 0.00 -201.91 30.35438 32.47639 0.00000
4505.23 -10.00000 -10.00000 -1691.94434 -1327.28 0.00 -201.91 33.85437 25.24884 0.00000
4508.29 -10.00000 -10.00000 -1740.53906 -1373.04 0.00 -201.91 33.85437 26.26123 0.00000
4509.85 -10.00000 -10.00000 -1783.41724 -1418.80 0.00 -201.91 33.85437 27.15453 0.00000
4512.84 -10.00000 -10.00000 -1821.25049 -1463.92 0.00 -201.91 33.85437 27.94272 0.00000
4515.22 -10.00000 -10.00000 -1548.28418 -1489.90 0.00 -201.91 37.47937 22.25592 0.00000
4518.30 -10.00000 -10.00000 -1634.25146 -1501.83 0.00 -201.91 37.47937 24.04691 0.00000
4519.87 -10.00000 -10.00000 -1710.10547 -1521.87 0.00 -201.91 37.47937 25.62720 0.00000
4522.85 -10.00000 -10.00000 -1777.03491 -1547.95 0.00 -201.91 37.47937 27.02156 0.00000
4525.25 -10.00000 -10.00000 -2079.09082 -1592.67 0.00 -201.91 38.54187 33.31439 0.00000
4528.29 -10.00000 -10.00000 -2108.61035 -1651.63 0.00 -201.91 38.54187 33.92938 0.00000
4529.87 -10.00000 -10.00000 -2134.65674 -1706.93 0.00 -201.91 38.54187 34.47202 0.00000
4532.84 -10.00000 -10.00000 -2157.63940 -1758.60 0.00 -201.91 38.54187 34.95082 0.00000
4535.23 -10.00000 -10.00000 -2749.68237 -1840.37 0.00 -201.91 41.04187 47.28505 0.00000
4538.29 -10.00000 -10.00000 -2714.42505 -1945.27 0.00 -201.91 41.04187 46.55052 0.00000
4539.87 -10.00000 -10.00000 -2683.31616 -2033.93 0.00 -201.91 41.04187 45.90242 0.00000
4542.84 -10.00000 -10.00000 -2655.86719 -2108.72 0.00 -201.91 41.04187 45.33057 0.00000
4545.22 -10.00000 -10.00000 -2688.82397 -2175.03 0.00 -201.91 41.29187 46.01717 0.00000
4548.30 -10.00000 -10.00000 -2662.13892 -2233.90 0.00 -201.91 41.29187 45.46123 0.00000
4549.85 -10.00000 -10.00000 -2638.59375 -2282.90 0.00 -201.91 41.29187 44.97070 0.00000
4552.84 -10.00000 -10.00000 -2617.81787 -2323.52 0.00 -201.91 41.29187 44.53787 0.00000
4555.24 -10.00000 -10.00000 -2642.36865 -2359.59 0.00 -201.91 41.47937 45.04935 0.00000
4558.28 -10.00000 -10.00000 -2622.20801 -2391.67 0.00 -201.91 41.47937 44.62933 0.00000
4559.85 -10.00000 -10.00000 -2604.41968 -2417.75 0.00 -201.91 41.47937 44.25874 0.00000
4562.84 -10.00000 -10.00000 -2588.72388 -2438.78 0.00 -201.91 41.47937 43.93175 0.00000
4565.24 -10.00000 -10.00000 -2789.28589 -2468.22 0.00 -201.91 42.41687 48.11012 0.00000
4568.29 -10.00000 -10.00000 -2757.13477 -2504.10 0.00 -201.91 42.41687 47.44031 0.00000
4569.85 -10.00000 -10.00000 -2728.76660 -2532.20 0.00 -201.91 42.41687 46.84930 0.00000
4572.84 -10.00000 -10.00000 -2703.73535 -2553.86 0.00 -201.91 42.41687 46.32782 0.00000
4575.22 -10.00000 -10.00000 -2781.70825 -2576.07 0.00 -201.91 42.85437 47.95226 0.00000
4578.30 -10.00000 -10.00000 -2752.91895 -2598.57 0.00 -201.91 42.85437 47.35248 0.00000
4579.86 -10.00000 -10.00000 -2727.51709 -2615.24 0.00 -201.91 42.85437 46.82327 0.00000
4582.84 -10.00000 -10.00000 -2705.10352 -2627.13 0.00 -201.91 42.85437 46.35632 0.00000
4585.22 -10.00000 -10.00000 -1970.62061 -2593.10 0.00 -201.91 39.72937 31.05460 0.00000
4588.29 -10.00000 -10.00000 -2019.60645 -2522.75 0.00 -201.91 39.72937 32.07513 0.00000
4589.87 -10.00000 -10.00000 -2062.82959 -2466.10 0.00 -201.91 39.72937 32.97562 0.00000
4592.84 -10.00000 -10.00000 -2100.96753 -2420.90 0.00 -201.91 39.72937 33.77016 0.00000
4595.22 -10.00000 -10.00000 -2520.56030 -2407.94 0.00 -201.91 41.41687 42.51167 0.00000
4598.31 -10.00000 -10.00000 -2514.37720 -2420.82 0.00 -201.91 41.41687 42.38286 0.00000
4599.85 -10.00000 -10.00000 -2508.92139 -2431.51 0.00 -201.91 41.41687 42.26920 0.00000
4602.84 -10.00000 -10.00000 -2504.10718 -2440.33 0.00 -201.91 41.41687 42.16890 0.00000
4605.25 -10.00000 -10.00000 -1828.03638 -2408.07 0.00 -201.91 38.47937 28.08409 0.00000
4608.28 -10.00000 -10.00000 -1886.73853 -2343.28 0.00 -201.91 38.47937 29.30705 0.00000
4609.86 -10.00000 -10.00000 -1938.53467 -2292.62 0.00 -201.91 38.47937 30.38614 0.00000
4612.84 -10.00000 -10.00000 -1984.23706 -2253.65 0.00 -201.91 38.47937 31.33827 0.00000
4615.22 -10.00000 -10.00000 -1552.85669 -2196.58 0.00 -201.91 36.41687 22.35118 0.00000
4618.28 -10.00000 -10.00000 -1632.28638 -2125.52 0.00 -201.91 36.41687 24.00597 0.00000
4619.84 -10.00000 -10.00000 -1702.37109 -2071.61 0.00 -201.91 36.41687 25.46606 0.00000
4622.83 -10.00000 -10.00000 -1764.21094 -2031.81 0.00 -201.91 36.41687 26.75439 0.00000
4625.25 -10.00000 -10.00000 -1718.71582 -1997.65 0.00 -201.91 35.97937 25.80658 0.00000
4628.28 -10.00000 -10.00000 -1776.16113 -1968.22 0.00 -201.91 35.97937 27.00336 0.00000
4629.89 -10.00000 -10.00000 -1826.84839 -1948.60 0.00 -201.91 35.97937 28.05934 0.00000
4632.84 -10.00000 -10.00000 -1871.57227 -1936.91 0.00 -201.91 35.97937 28.99109 0.00000
4635.25 -10.00000 -10.00000 -2245.97314 -1951.25 0.00 -201.91 32.47937 36.79111 0.00000
4638.28 -10.00000 -10.00000 -2221.62378 -1984.49 0.00 -201.91 32.47937 36.28383 0.00000
4639.84 -10.00000 -10.00000 -2200.13892 -2011.12 0.00 -201.91 32.47937 35.83623 0.00000
4642.84 -10.00000 -10.00000 -2181.18164 -2032.24 0.00 -201.91 32.47937 35.44128 0.00000
4645.22 -10.00000 -10.00000 -2313.57056 -2057.55 0.00 -201.91 28.16688 38.19939 0.00000
4648.30 -10.00000 -10.00000 -2256.91626 -2084.34 0.00 -201.91 28.16688 37.01909 0.00000
4649.84 -10.00000 -10.00000 -2206.92700 -2101.70 0.00 -201.91 28.16688 35.97765 0.00000
4652.84 -10.00000 -10.00000 -2162.81909 -2111.49 0.00 -201.91 28.16688 35.05873 0.00000
4655.21 -10.00000 -10.00000 -2238.25269 -2121.96 0.00 -201.91 28.66688 36.63026 0.00000
4658.31 -10.00000 -10.00000 -2193.28198 -2133.00 0.00 -201.91 28.66688 35.69337 0.00000
4659.85 -10.00000 -10.00000 -2153.60229 -2137.76 0.00 -201.91 28.66688 34.86671 0.00000
4662.84 -10.00000 -10.00000 -2118.59033 -2137.56 0.00 -201.91 28.66688 34.13730 0.00000
4665.22 -10.00000 -10.00000 -2036.69458 -2130.51 0.00 -201.91 23.47938 32.43114 0.00000
4668.30 -10.00000 -10.00000 -1986.14282 -2116.50 0.00 -201.91 23.47938 31.37798 0.00000
4669.84 -10.00000 -10.00000 -1941.53833 -2098.54 0.00 -201.91 23.47938 30.44872 0.00000
4672.84 -10.00000 -10.00000 -1902.18164 -2077.75 0.00 -201.91 23.47938 29.62878 0.00000
4675.26 -10.00000 -10.00000 -2259.57031 -2078.12 0.00 -201.91 20.22938 37.07438 0.00000
4678.29 -10.00000 -10.00000 -2164.44482 -2093.87 0.00 -201.91 20.22938 35.09260 0.00000
4679.87 -10.00000 -10.00000 -2080.51099 -2097.24 0.00 -201.91 20.22938 33.34398 0.00000
4682.84 -10.00000 -10.00000 -2006.45178 -2090.91 0.00 -201.91 20.22938 31.80108 0.00000
4685.22 -10.00000 -10.00000 -1712.39941 -2063.68 0.00 -201.91 19.22938 25.67499 0.00000
4688.29 -10.00000 -10.00000 -1676.00024 -2020.21 0.00 -201.91 19.22938 24.91667 0.00000
4689.86 -10.00000 -10.00000 -1643.88318 -1977.83 0.00 -201.91 19.22938 24.24757 0.00000
4692.84 -10.00000 -10.00000 -1615.54468 -1936.87 0.00 -201.91 19.22938 23.65718 0.00000
4695.23 -10.00000 -10.00000 -1210.77209 -1875.26 0.00 -201.91 12.60437 15.22442 0.00000
4698.28 -10.00000 -10.00000 -1195.97644 -1796.21 0.00 -201.91 12.60437 14.91618 0.00000
4699.87 -10.00000 -10.00000 -1182.92139 -1724.83 0.00 -201.91 12.60437 14.64420 0.00000
4702.85 -10.00000 -10.00000 -1171.40222 -1660.40 0.00 -201.91 12.60437 14.40421 0.00000
4705.23 -10.00000 -10.00000 -789.59106 -1580.41 0.00 -201.91 10.97937 6.44981 0.00000
4708.31 -10.00000 -10.00000 -815.16962 -1488.88 0.00 -201.91 10.97937 6.98270 0.00000
4709.84 -10.00000 -10.00000 -837.73883 -1410.94 0.00 -201.91 10.97937 7.45289 0.00000
4712.84 -10.00000 -10.00000 -857.65283 -1344.68 0.00 -201.91 10.97937 7.86777 0.00000
4715.23 -10.00000 -10.00000 -1067.22095 -1299.71 0.00 -201.91 6.85437 12.23377 0.00000
4718.28 -10.00000 -10.00000 -1036.84314 -1270.57 0.00 -201.91 6.85437 11.60090 0.00000
4719.85 -10.00000 -10.00000 -1010.03925 -1241.50 0.00 -201.91 6.85437 11.04248 0.00000
4722.84 -10.00000 -10.00000 -986.38879 -1212.88 0.00 -201.91 6.85437 10.54977 0.00000
4725.25 -10.00000 -10.00000 -1300.45850 -1204.70 0.00 -201.91 3.35437 17.09289 0.00000
4728.29 -10.00000 -10.00000 -1222.87622 -1211.41 0.00 -201.91 3.35437 15.47659 0.00000
4729.86 -10.00000 -10.00000 -1154.42114 -1208.73 0.00 -201.91 3.35437 14.05044 0.00000
4732.84 -10.00000 -10.00000 -1094.01978 -1198.79 0.00 -201.91 3.35437 12.79208 0.00000
4735.22 -10.00000 -10.00000 -1261.30969 -1196.30 0.00 -201.91 -0.64562 16.27728 0.00000
4738.30 -10.00000 -10.00000 -1165.74500 -1198.33 0.00 -201.91 -0.64562 14.28635 0.00000
4739.85 -10.00000 -10.00000 -1081.42334 -1189.53 0.00 -201.91 -0.64562 12.52965 0.00000
4742.84 -10.00000 -10.00000 -1007.02167 -1172.44 0.00 -201.91 -0.64562 10.97962 0.00000
4745.22 -10.00000 -10.00000 -1333.48779 -1172.18 0.00 -201.91 -3.89563 17.78099 0.00000
4748.30 -10.00000 -10.00000 -1211.07861 -1183.96 0.00 -201.91 -3.89563 15.23080 0.00000
4749.87 -10.00000 -10.00000 -1103.07056 -1180.80 0.00 -201.91 -3.89563 12.98064 0.00000
4752.84 -10.00000 -10.00000 -1007.76941 -1166.05 0.00 -201.91 -3.89563 10.99520 0.00000
4755.22 -10.00000 -10.00000 -1230.02979 -1160.50 0.00 -201.91 -7.52063 15.62562 0.00000
4758.29 -10.00000 -10.00000 -1099.32166 -1160.99 0.00 -201.91 -7.52063 12.90253 0.00000
4759.86 -10.00000 -10.00000 -983.99097 -1146.95 0.00 -201.91 -7.52063 10.49981 0.00000
4762.84 -10.00000 -10.00000 -882.22852 -1121.79 0.00 -201.91 -7.52063 8.37976 0.00000
4765.24 -10.00000 -10.00000 -512.72919 -1071.87 0.00 -201.91 -13.70813 0.68186 0.00000
4768.28 -10.00000 -10.00000 -431.46844 -1001.31 0.00 -201.91 -13.70813 -1.01107 0.00000
4769.85 -10.00000 -10.00000 -359.76801 -930.05 0.00 -201.91 -13.70813 -2.50483 0.00000
4772.84 -10.00000 -10.00000 -296.50287 -859.24 0.00 -201.91 -13.70813 -3.82286 0.00000
4775.22 -10.00000 -10.00000 -112.03326 -782.18 0.00 -201.91 -14.27063 -7.66597 0.00000
4778.29 -10.00000 -10.00000 -74.73669 -701.15 0.00 -201.91 -14.27063 -8.44299 0.00000
4779.86 -10.00000 -10.00000 -41.82788 -625.52 0.00 -201.91 -14.27063 -9.12859 0.00000
4782.84 -10.00000 -10.00000 -12.79065 -555.14 0.00 -201.91 -14.27063 -9.73353 0.00000
4785.23 -6.99244 -6.99244 722.78406 -448.07 0.00 -201.91 -21.70812 -22.05045 0.00000
4788.29 -6.72643 -6.72643 733.61896 -309.68 0.00 -201.91 -21.70812 -22.01016 0.00000
4789.88 -6.46132 -6.46132 744.63818 -186.29 0.00 -125.38 -21.70812 -21.97462 0.00000
4792.84 -6.13953 -6.13953 758.57874 -75.95 0.00 -51.12 -21.70812 -21.94325 0.00000
4795.23 -3.15856 -3.15856 1329.16016 55.79 0.00 37.55 -23.58312 -30.84940 0.00000
4798.33 -3.00879 -3.00879 1295.31555 203.61 0.00 137.04 -23.58312 -29.99453 0.00000
4799.84 -2.85923 -2.85923 1266.28809 330.34 0.00 201.91 -23.58312 -29.24023 0.00000
4802.84 -2.62156 -2.62156 1245.74927 439.24 0.00 201.91 -23.58312 -28.57467 0.00000
4805.23 2.94679 2.94679 1207.08118 531.85 0.00 201.91 -27.33312 -22.20073 0.00000
4808.29 3.13538 3.13538 1245.11609 613.53 0.00 201.91 -27.33312 -22.80454 0.00000
4809.85 3.32392 3.32392 1279.73962 689.87 0.00 201.91 -27.33312 -23.33732 0.00000
4812.84 3.76309 3.76309 1323.38428 761.83 0.00 201.91 -27.33312 -23.80741 0.00000
4815.23 10.00000 10.00000 1936.66846 863.97 0.00 201.91 -33.58313 -30.34726 0.00000
4818.29 10.00000 10.00000 1954.94165 991.25 0.00 201.91 -33.58313 -30.72795 0.00000
4819.85 10.00000 10.00000 1971.06519 1105.57 0.00 201.91 -33.58313 -31.06386 0.00000
4822.84 10.00000 10.00000 1985.29175 1208.23 0.00 201.91 -33.58313 -31.36024 0.00000
4825.21 10.00000 10.00000 2097.90308 1306.27 0.00 201.91 -34.02063 -33.70631 0.00000
4828.28 10.00000 10.00000 2099.67700 1399.51 0.00 201.91 -34.02063 -33.74327 0.00000
4829.85 10.00000 10.00000 2101.24219 1481.98 0.00 201.91 -34.02063 -33.77588 0.00000
4832.84 10.00000 10.00000 2102.62354 1554.91 0.00 201.91 -34.02063 -33.80466 0.00000
4835.22 10.00000 10.00000 2326.37476 1632.51 0.00 201.91 -39.95813 -38.46614 0.00000
4838.31 10.00000 10.00000 2334.79834 1714.64 0.00 201.91 -39.95813 -38.64163 0.00000
4839.87 10.00000 10.00000 2342.23096 1788.03 0.00 201.91 -39.95813 -38.79648 0.00000
4842.84 10.00000 10.00000 2348.78906 1853.62 0.00 201.91 -39.95813 -38.93311 0.00000
4845.22 10.00000 10.00000 2426.04712 1916.42 0.00 201.91 -40.27063 -40.54265 0.00000
4848.30 10.00000 10.00000 2424.51050 1976.28 0.00 201.91 -40.27063 -40.51064 0.00000
4849.87 10.00000 10.00000 2423.15479 2028.94 0.00 201.91 -40.27063 -40.48239 0.00000
4852.85 10.00000 10.00000 2421.95874 2075.25 0.00 201.91 -40.27063 -40.45747 0.00000
4855.22 10.00000 10.00000 2949.78516 2147.08 0.00 201.91 -42.58313 -51.45386 0.00000
4858.28 10.00000 10.00000 2899.69043 2238.57 0.00 201.91 -42.58313 -50.41022 0.00000
4859.85 10.00000 10.00000 2855.48950 2313.75 0.00 201.91 -42.58313 -49.48936 0.00000
4862.84 10.00000 10.00000 2816.48877 2375.19 0.00 201.91 -42.58313 -48.67685 0.00000
4865.21 10.00000 10.00000 2639.13574 2416.68 0.00 201.91 -41.95813 -44.98199 0.00000
4868.31 10.00000 10.00000 2622.05859 2441.84 0.00 201.91 -41.95813 -44.62622 0.00000
4869.87 10.00000 10.00000 2606.99048 2462.16 0.00 201.91 -41.95813 -44.31230 0.00000
4872.84 10.00000 10.00000 2593.69556 2478.41 0.00 201.91 -41.95813 -44.03532 0.00000
4875.24 10.00000 10.00000 3239.49390 2529.96 0.00 201.91 -44.83313 -57.48946 0.00000
4878.28 10.00000 10.00000 3168.02271 2609.23 0.00 201.91 -44.83313 -56.00047 0.00000
4879.85 10.00000 10.00000 3104.95972 2671.26 0.00 201.91 -44.83313 -54.68666 0.00000
4882.84 10.00000 10.00000 3049.31616 2719.01 0.00 201.91 -44.83313 -53.52742 0.00000
4884.96 10.00000 10.00000 3000.21899 2754.98 0.00 201.91 -44.83313 -52.50456 0.00000
4888.65 10.00000 10.00000 2556.66138 2757.74 0.00 201.91 -43.08313 -43.26378 0.00000
4889.84 10.00000 10.00000 2555.64038 2734.03 0.00 201.91 -43.08313 -43.24251 0.00000
4892.84 10.00000 10.00000 2554.73950 2712.99 0.00 201.91 -43.08313 -43.22374 0.00000
4894.85 10.00000 10.00000 2553.94482 2694.32 0.00 201.91 -43.08313 -43.20718 0.00000
4898.65 10.00000 10.00000 2724.77271 2687.86 0.00 201.91 -43.83313 -46.76610 0.00000
4899.84 10.00000 10.00000 2708.20972 2691.23 0.00 201.91 -43.83313 -46.42104 0.00000
4902.84 10.00000 10.00000 2693.59497 2692.36 0.00 201.91 -43.83313 -46.11656 0.00000
4904.86 10.00000 10.00000 2680.69995 2691.75 0.00 201.91 -43.83313 -45.84792 0.00000
4908.65 10.00000 10.00000 2454.90967 2677.17 0.00 201.91 -42.89563 -41.14395 0.00000
4909.85 10.00000 10.00000 2464.80029 2651.60 0.00 201.91 -42.89563 -41.35001 0.00000
4912.83 10.00000 10.00000 2473.52783 2630.14 0.00 201.91 -42.89563 -41.53183 0.00000
4914.85 10.00000 10.00000 2481.22852 2612.17 0.00 201.91 -42.89563 -41.69226 0.00000
4918.66 10.00000 10.00000 2044.90576 2571.10 0.00 201.91 -40.95813 -32.60220 0.00000
4919.85 10.00000 10.00000 2092.09131 2511.97 0.00 201.91 -40.95813 -33.58524 0.00000
4922.84 10.00000 10.00000 2133.72583 2465.02 0.00 201.91 -40.95813 -34.45262 0.00000
4924.86 10.00000 10.00000 2170.46191 2428.20 0.00 201.91 -40.95813 -35.21796 0.00000
4928.65 10.00000 10.00000 1659.69946 2367.84 0.00 201.91 -38.58313 -24.57707 0.00000
4929.85 10.00000 10.00000 1738.79150 2289.18 0.00 201.91 -38.58313 -26.22482 0.00000
4932.84 10.00000 10.00000 1808.57812 2228.53 0.00 201.91 -38.58313 -27.67871 0.00000
4934.85 10.00000 10.00000 1870.15503 2182.75 0.00 201.91 -38.58313 -28.96156 0.00000
4938.66 10.00000 10.00000 1624.31104 2131.51 0.00 201.91 -37.27063 -23.83981 0.00000
4939.84 10.00000 10.00000 1700.15479 2076.30 0.00 201.91 -37.27063 -25.41989 0.00000
4942.83 10.00000 10.00000 1767.07617 2035.99 0.00 201.91 -37.27063 -26.81409 0.00000
4944.85 10.00000 10.00000 1826.12402 2007.82 0.00 201.91 -37.27063 -28.04425 0.00000
4948.65 10.00000 10.00000 2213.16357 2009.21 0.00 201.91 -33.77063 -36.10757 0.00000
4949.84 10.00000 10.00000 2199.96533 2032.43 0.00 201.91 -33.77063 -35.83261 0.00000
4952.84 10.00000 10.00000 2188.31982 2051.46 0.00 201.91 -33.77063 -35.59000 0.00000
4954.85 10.00000 10.00000 2178.04468 2066.95 0.00 201.91 -33.77063 -35.37593 0.00000
4958.65 10.00000 10.00000 2561.09277 2102.55 0.00 201.91 -30.52062 -43.35610 0.00000
4959.85 10.00000 10.00000 2488.60913 2152.24 0.00 201.91 -30.52062 -41.84602 0.00000
4962.83 10.00000 10.00000 2424.65259 2188.05 0.00 201.91 -30.52062 -40.51360 0.00000
4964.85 10.00000 10.00000 2368.22021 2212.56 0.00 201.91 -30.52062 -39.33792 0.00000
4968.66 10.00000 10.00000 2481.83691 2237.56 0.00 201.91 -26.27062 -41.70493 0.00000
4969.85 10.00000 10.00000 2394.67773 2261.17 0.00 201.91 -26.27062 -39.88912 0.00000
4972.83 10.00000 10.00000 2317.77295 2272.35 0.00 201.91 -26.27062 -38.28693 0.00000
4974.85 10.00000 10.00000 2249.91553 2273.71 0.00 201.91 -26.27062 -36.87324 0.00000
4978.65 10.00000 10.00000 1546.80579 2229.55 0.00 201.91 -23.45812 -22.22512 0.00000
4979.85 10.00000 10.00000 1553.76819 2149.63 0.00 201.91 -23.45812 -22.37017 0.00000
4982.84 10.00000 10.00000 1559.91174 2079.89 0.00 201.91 -23.45812 -22.49816 0.00000
4984.85 10.00000 10.00000 1565.33240 2019.04 0.00 201.91 -23.45812 -22.61109 0.00000
4988.65 10.00000 10.00000 1390.46521 1955.37 0.00 201.91 -17.70812 -18.96803 0.00000
4989.84 10.00000 10.00000 1383.35010 1888.50 0.00 201.91 -17.70812 -18.81979 0.00000
4992.84 10.00000 10.00000 1377.07214 1828.70 0.00 201.91 -17.70812 -18.68900 0.00000
4994.85 10.00000 10.00000 1371.53284 1775.24 0.00 201.91 -17.70812 -18.57360 0.00000
4998.65 10.00000 10.00000 1487.17139 1734.55 0.00 201.91 -13.27063 -20.98274 0.00000
4999.84 10.00000 10.00000 1443.62012 1702.88 0.00 201.91 -13.27063 -20.07542 0.00000
